         AS		             SR300°C/5h		        SA100°C/15min	
   2θ     Intensity       2θ     Intensity     2θ     Intensity
30.02626	1247.00906	30.02626	1202.00895	30.02626	1414.01058
30.07926	1259.30136	30.07926	1233.83527	30.07926	1456.33017
30.13226	1291.05349	30.13226	1215.20149	30.13226	1490.82897
30.18526	1295.10677	30.18526	1228.61047	30.18526	1484.50291
30.23826	1264.54095	30.23826	1252.23386	30.23826	1498.10806
30.29126	1305.10055	30.29126	1310.827	  30.29126	1399.98025
30.34426	1307.93966	30.34426	1303.6165	  30.34426	1500.39902
30.39726	1320.38793	30.39726	1245.60183	30.39726	1442.16968
30.45026	1271.29125	30.45026	1257.12416	30.45026	1501.60386
30.50326	1305.87003	30.50326	1281.87559	30.50326	1468.05631
30.55626	1237.40711	30.55626	1253.81443	30.55626	1439.6608
30.60926	1343.88756	30.60926	1211.50713	30.60926	1484.80691
30.66226	1278.43108	30.66226	1212.43482	30.66226	1476.14503
30.71526	1271.69827	30.71526	1258.66835	30.71526	1489.74381
30.76826	1306.35043	30.76826	1269.09436	30.76826	1468.22243
30.82126	1253.59866	30.82126	1253.95738	30.82126	1528.98389
30.87426	1266.62021	30.87426	1244.21868	30.87426	1480.32682
30.92726	1351.91588	30.92726	1263.27316	30.92726	1527.71552
30.98026	1312.77316	30.98026	1257.29576	30.98026	1512.31291
31.03326	1286.20631	31.03326	1220.60729	31.03326	1478.40478
31.08626	1311.55648	31.08626	1226.62614	31.08626	1506.30979
31.13926	1311.71156	31.13926	1210.64676	31.13926	1425.66951
31.19226	1311.99085	31.19226	1263.76258	31.19226	1492.94775
31.24526	1352.84849	31.24526	1264.68666	31.24526	1486.67253
31.29826	1348.56964	31.29826	1284.79513	31.29826	1501.44603
31.35126	1308.10448	31.35126	1317.59711	31.35126	1467.06896
31.40426	1271.20328	31.40426	1248.25866	31.40426	1442.33817
31.45726	1289.93064	31.45726	1212.08831	31.45726	1478.75666
31.51026	1263.60271	31.51026	1240.8382	  31.51026	1470.03168
31.56326	1297.73106	31.56326	1258.3549	  31.56326	1494.16365
31.61626	1273.32718	31.61626	1272.1796	  31.61626	1528.39265
31.66926	1299.59358	31.66926	1257.76909	31.66926	1474.59968
31.72226	1264.71369	31.72226	1264.46877	31.72226	1498.12111
31.77526	1275.32751	31.77526	1278.12518	31.77526	1484.01063
31.82826	1290.93925	31.82826	1217.82871	31.82826	1499.20072
31.88126	1292.69014	31.88126	1246.41215	31.88126	1513.54426
31.93426	1299.55904	31.93426	1271.07012	31.93426	1472.9953
31.98726	1302.81742	31.98726	1259.25244	31.98726	1487.43858
32.04026	1289.05664	32.04026	1263.78878	32.04026	1529.68054
32.09326	1300.89758	32.09326	1263.25147	32.09326	1538.4755
32.14626	1304.05667	32.14626	1225.6559	  32.14626	1517.35244
32.19926	1340.60785	32.19926	1248.45776	32.19926	1548.66517
32.25226	1359.22231	32.25226	1270.64764	32.25226	1513.86276
32.30526	1358.56009	32.30526	1267.89038	32.30526	1493.98912
32.35826	1365.06428	32.35826	1246.91809	32.35826	1505.39383
32.41126	1356.2157	32.41126	1217.51143	  32.41126	1503.46626
32.46426	1304.17057	32.46426	1237.07315	32.46426	1531.88344
32.51726	1319.29294	32.51726	1215.01116	32.51726	1535.72833
32.57026	1335.75792	32.57026	1224.26924	32.57026	1519.14002
32.62326	1292.8215	32.62326	1250.03198	  32.62326	1540.92543
32.67626	1279.46539	32.67626	1243.5973	  32.67626	1541.99629
32.72926	1316.54442	32.72926	1245.66352	32.72926	1550.8915
32.78226	1305.57834	32.78226	1223.74153	32.78226	1563.74397
32.83526	1288.21009	32.83526	1233.98995	32.83526	1559.9777
32.88826	1276.1005	32.88826	1260.84154	  32.88826	1549.19382
32.94126	1296.4933	32.94126	1281.44413	  32.94126	1535.89649
32.99426	1302.58679	32.99426	1280.79791	32.99426	1552.37028
33.04726	1307.43472	33.04726	1281.92264	33.04726	1559.13709
33.10026	1327.89426	33.10026	1290.42281	33.10026	1578.0384
33.15326	1344.83746	33.15326	1273.94687	33.15326	1538.45848
33.20626	1336.39175	33.20626	1242.40877	33.20626	1560.14701
33.25926	1318.79038	33.25926	1248.14407	33.25926	1551.70674
33.31226	1345.31807	33.31226	1265.00906	33.31226	1514.36209
33.36526	1322.07557	33.36526	1232.26591	33.36526	1473.71572
33.41826	1329.52461	33.41826	1279.78728	33.41826	1484.5312
33.47126	1374.09709	33.47126	1281.13293	33.47126	1525.45607
33.52426	1328.24259	33.52426	1260.24728	33.52426	1554.48764
33.57726	1321.77438	33.57726	1286.11339	33.57726	1589.72643
33.63026	1363.08937	33.63026	1264.14967	33.63026	1559.47195
33.68326	1353.36162	33.68326	1220.73156	33.68326	1550.99717
33.73626	1292.77965	33.73626	1248.49441	33.73626	1507.39881
33.78926	1365.05629	33.78926	1241.58284	33.78926	1515.20526
33.84226	1342.85706	33.84226	1206.62699	33.84226	1508.43833
33.89526	1357.58994	33.89526	1183.03061	33.89526	1542.60076
33.94826	1370.1656	33.94826	1244.15737	  33.94826	1556.21535
34.00126	1388.21116	34.00126	1286.48952	34.00126	1550.21467
34.05426	1332.79687	34.05426	1279.92254	34.05426	1557.63321
34.10726	1320.56043	34.10726	1252.54373	34.10726	1572.24389
34.16026	1338.67705	34.16026	1316.2593	  34.16026	1524.3848
34.21326	1288.98759	34.21326	1268.93822	34.21326	1513.81517
34.26626	1385.44547	34.26626	1236.82062	34.26626	1519.46971
34.31926	1360.3257	34.31926	1309.12465	  34.31926	1562.10786
34.37226	1388.34635	34.37226	1253.51372	34.37226	1532.89887
34.42526	1350.76417	34.42526	1230.54954	34.42526	1591.41981
34.47826	1340.66873	34.47826	1250.39086	34.47826	1520.80365
34.53126	1366.93615	34.53126	1306.29084	34.53126	1512.05155
34.58426	1364.6007	34.58426	1290.42975	  34.58426	1541.53373
34.63726	1302.51826	34.63726	1308.97866	34.63726	1498.03823
34.69026	1331.13819	34.69026	1250.21715	34.69026	1519.51147
34.74326	1360.67342	34.74326	1216.15651	34.74326	1547.48622
34.79626	1376.4981	34.79626	1263.70614	  34.79626	1553.65231
34.84926	1374.86128	34.84926	1216.09905	34.84926	1524.14123
34.90226	1369.81562	34.90226	1260.21119	34.90226	1584.27957
34.95526	1324.91541	34.95526	1314.25553	34.95526	1544.43735
35.00826	1374.43473	35.00826	1278.29768	35.00826	1534.1539
35.06126	1378.8126	35.06126	1324.71468	  35.06126	1563.46243
35.11426	1350.77638	35.11426	1318.03312	35.11426	1588.90385
35.16726	1409.80176	35.16726	1246.14215	35.16726	1530.10369
35.22026	1337.59328	35.22026	1286.15251	35.22026	1546.13597
35.27326	1387.58413	35.27326	1339.84948	35.27326	1595.04603
35.32626	1383.06874	35.32626	1250.1855	  35.32626	1513.39326
35.37926	1375.56363	35.37926	1290.73724	35.37926	1540.9257
35.43226	1381.51999	35.43226	1203.86729	35.43226	1601.67232
35.48526	1365.10529	35.48526	1299.3754	  35.48526	1621.03783
35.53826	1337.45821	35.53826	1370.49172	35.53826	1611.58065
35.59126	1337.92436	35.59126	1265.82422	35.59126	1573.67314
35.64426	1385.26831	35.64426	1310.20625	35.64426	1568.99774
35.69726	1390.91222	35.69726	1308.10711	35.69726	1577.79139
35.75026	1443.1989	35.75026	1290.28483	  35.75026	1604.59812
35.80326	1352.57875	35.80326	1285.04013	35.80326	1614.94971
35.85626	1379.00102	35.85626	1261.07402	35.85626	1581.02609
35.90926	1375.99778	35.90926	1283.57688	35.90926	1585.62485
35.96226	1374.713	35.96226	1329.69148	  35.96226	1555.70741
36.01526	1360.7368	36.01526	1314.37253	  36.01526	1631.79774
36.06826	1354.92922	36.06826	1293.77255	36.06826	1563.1022
36.12126	1421.29863	36.12126	1288.01269	36.12126	1610.74149
36.17426	1331.75873	36.17426	1295.42648	36.17426	1556.09962
36.22726	1344.41016	36.22726	1379.60408	36.22726	1665.93726
36.28026	1360.48111	36.28026	1314.3672	  36.28026	1578.50729
36.33326	1478.66013	36.33326	1279.01961	36.33326	1554.21644
36.38626	1379.70421	36.38626	1373.75074	36.38626	1627.03591
36.43926	1395.39047	36.43926	1347.15672	36.43926	1676.33869
36.49226	1388.77378	36.49226	1309.84166	36.49226	1603.5962
36.54526	1382.16899	36.54526	1349.3462	  36.54526	1619.63748
36.59826	1401.61371	36.59826	1354.96023	36.59826	1592.5834
36.65126	1380.5859	  36.65126	1332.1035	  36.65126	1619.26203
36.70426	1389.07548	36.70426	1355.77764	36.70426	1585.25575
36.75726	1375.79884	36.75726	1333.53376	36.75726	1526.69708
36.81026	1372.86374	36.81026	1294.20194	36.81026	1585.70752
36.86326	1412.78181	36.86326	1335.38666	36.86326	1638.44096
36.91626	1388.74795	36.91626	1292.21065	36.91626	1594.75586
36.96926	1354.26094	36.96926	1397.17713	36.96926	1616.31743
37.02226	1306.92211	37.02226	1373.21339	37.02226	1612.00346
37.07526	1380.41275	37.07526	1350.61501	37.07526	1634.38187
37.12826	1397.00247	37.12826	1264.89628	37.12826	1560.67282
37.18126	1401.44247	37.18126	1284.077	  37.18126	1588.82752
37.23426	1380.80901	37.23426	1331.77005	37.23426	1645.7723
37.28726	1400.06371	37.28726	1314.50047	37.28726	1620.7804
37.34026	1385.22284	37.34026	1304.4497	  37.34026	1623.6042
37.39326	1465.05927	37.39326	1287.16123	37.39326	1649.74162
37.44626	1425.27423	37.44626	1372.48024	37.44626	1589.94129
37.49926	1379.57802	37.49926	1346.01425	37.49926	1614.44574
37.55226	1394.52595	37.55226	1329.27234	37.55226	1585.37959
37.60526	1384.47929	37.60526	1352.19792	37.60526	1614.55802
37.65826	1397.94895	37.65826	1339.52109	37.65826	1631.30934
37.71126	1421.80661	37.71126	1353.65699	37.71126	1619.87763
37.76426	1438.20628	37.76426	1336.75681	37.76426	1641.01176
37.81726	1402.51025	37.81726	1311.32883	37.81726	1623.9976
37.87026	1424.85302	37.87026	1326.43156	37.87026	1598.69837
37.92326	1408.84369	37.92326	1352.70733	37.92326	1613.37009
37.97626	1451.14247	37.97626	1347.21558	37.97626	1593.42273
38.02926	1438.05302	38.02926	1334.43125	38.02926	1572.3289
38.08226	1447.99361	38.08226	1307.78118	38.08226	1614.14908
38.13526	1438.43019	38.13526	1317.30505	38.13526	1648.54222
38.18826	1430.35209	38.18826	1311.4183	  38.18826	1644.483
38.24126	1393.49373	38.24126	1280.70294	38.24126	1628.90462
38.29426	1351.64442	38.29426	1264.09111	38.29426	1625.29108
38.34726	1329.29964	38.34726	1284.2515	  38.34726	1601.20488
38.40026	1337.25604	38.40026	1322.3167	  38.40026	1590.06068
38.45326	1355.92679	38.45326	1342.38842	38.45326	1613.40214
38.50626	1346.49233	38.50626	1350.35038	38.50626	1654.4122
38.55926	1374.41371	38.55926	1330.32387	38.55926	1679.67226
38.61226	1383.16611	38.61226	1353.34925	38.61226	1674.6266
38.66526	1364.26851	38.66526	1329.78206	38.66526	1672.98439
38.71826	1344.43023	38.71826	1331.22464	38.71826	1668.068
38.77126	1375.20584	38.77126	1289.36781	38.77126	1634.26672
38.82426	1356.85475	38.82426	1267.21724	38.82426	1637.7054
38.87726	1343.5733	38.87726	  1310.8736	  38.87726	1676.94201
38.93026	1388.3437	38.93026	  1352.14544	38.93026	1692.92496
38.98326	1418.2869	38.98326	  1336.3806	  38.98326	1686.03094
39.03626	1381.35942	39.03626	1299.90941	39.03626	1684.36216
39.08926	1379.2351	39.08926	  1342.67571	39.08926	1652.87271
39.14226	1413.26093	39.14226	1370.00981	39.14226	1635.64984
39.19526	1369.50988	39.19526	1329.01553	39.19526	1642.54749
39.24826	1373.30567	39.24826	1327.74825	39.24826	1686.93248
39.30126	1364.08073	39.30126	1350.98783	39.30126	1699.76077
39.35426	1387.89192	39.35426	1294.86155	39.35426	1671.98184
39.40726	1427.98972	39.40726	1367.49499	39.40726	1674.06051
39.46026	1442.97724	39.46026	1400.88001	39.46026	1694.0937
39.51326	1442.68977	39.51326	1364.47248	39.51326	1715.28547
39.56626	1448.62809	39.56626	1363.06276	39.56626	1715.31812
39.61926	1444.90607	39.61926	1345.54955	39.61926	1686.95077
39.67226	1447.2641	  39.67226	1323.45859	39.67226	1657.52611
39.72526	1373.45741	39.72526	1322.0208	  39.72526	1711.85647
39.77826	1358.05086	39.77826	1336.8855	  39.77826	1668.46713
39.83126	1375.1911	  39.83126	1377.35012	39.83126	1654.30281
39.88426	1366.77599	39.88426	1361.59501	39.88426	1687.55038
39.93726	1392.3242	  39.93726	1342.36976	39.93726	1717.7518
39.99026	1423.57697	39.99026	1330.01203	39.99026	1716.72891
40.04326	1450.53764	40.04326	1331.79539	40.04326	1682.63633
40.09626	1414.06875	40.09626	1336.20664	40.09626	1646.84404
40.14926	1408.39083	40.14926	1336.26809	40.14926	1649.13403
40.20226	1414.26195	40.20226	1377.29319	40.20226	1666.52285
40.25526	1436.28275	40.25526	1341.62711	40.25526	1718.87535
40.30826	1393.80323	40.30826	1327.54722	40.30826	1696.33823
40.36126	1431.91292	40.36126	1363.79687	40.36126	1665.56242
40.41426	1368.98849	40.41426	1392.79896	40.41426	1696.09508
40.46726	1393.39095	40.46726	1418.71025	40.46726	1682.92349
40.52026	1401.78891	40.52026	1375.69293	40.52026	1693.11777
40.57326	1515.84223	40.57326	1363.19536	40.57326	1705.9707
40.62626	1472.01035	40.62626	1305.36213	40.62626	1643.7763
40.67926	1453.67979	40.67926	1427.90058	40.67926	1694.95935
40.73226	1437.01645	40.73226	1365.78097	40.73226	1678.54968
40.78526	1453.58125	40.78526	1354.11514	40.78526	1749.59408
40.83826	1455.29036	40.83826	1353.28963	40.83826	1731.19126
40.89126	1490.64606	40.89126	1432.10343	40.89126	1719.05907
40.94426	1486.2417	  40.94426	1400.87297	40.94426	1737.20824
40.99726	1433.54498	40.99726	1378.15055	40.99726	1655.71526
41.05026	1499.6238	  41.05026	1429.79769	41.05026	1662.94106
41.10326	1474.50402	41.10326	1402.5035	41.10326	1704.85783
41.15626	1443.56913	41.15626	1382.54518	41.15626	1806.8866
41.20926	1477.04002	41.20926	1394.86747	41.20926	1733.79139
41.26226	1424.0328	  41.26226	1384.81444	41.26226	1674.76643
41.31526	1437.90985	41.31526	1371.76277	41.31526	1731.30561
41.36826	1451.37608	41.36826	1432.83867	41.36826	1764.50003
41.42126	1464.49479	41.42126	1412.96218	41.42126	1695.90798
41.47426	1410.72058	41.47426	1407.1628	41.47426	1788.01948
41.52726	1424.564	  41.52726	1411.80046	41.52726	1752.72066
41.58026	1488.21916	41.58026	1429.78763	41.58026	1809.29566
41.63326	1514.92655	41.63326	1460.90995	41.63326	1895.73473
41.68626	1496.01661	41.68626	1456.81396	41.68626	1737.96528
41.73926	1495.94419	41.73926	1453.69998	41.73926	1729.65188
41.79226	1426.90363	41.79226	1372.39476	41.79226	1704.8049
41.84526	1464.90695	41.84526	1429.35559	41.84526	1658.37413
41.89826	1520.30766	41.89826	1461.06765	41.89826	1727.22435
41.95126	1524.38337	41.95126	1372.00983	41.95126	1731.13655
42.00426	1477.84171	42.00426	1372.39476	42.00426	1711.85906
42.05726	1509.26537	42.05726	1380.21898	42.05726	1665.29072
42.11026	1521.67567	42.11026	1384.11343	42.11026	1674.92368
42.16326	1468.28415	42.16326	1396.57027	42.16326	1742.07764
42.21626	1440.59275	42.21626	1389.68023	42.21626	1724.14794
42.26926	1452.27602	42.26926	1375.86842	42.26926	1733.18034
42.32226	1503.97288	42.32226	1441.54904	42.32226	1651.35288
42.37526	1495.51293	42.37526	1442.86375	42.37526	1712.68322
42.42826	1490.14068	42.42826	1465.3898	42.42826	1653.10182
42.48126	1472.87349	42.48126	1393.86278	42.48126	1737.29897
42.53426	1443.87834	42.53426	1416.75548	42.53426	1719.53261
42.58726	1459.67577	42.58726	1420.67549	42.58726	1655.4686
42.64026	1479.42066	42.64026	1441.95037	42.64026	1707.12227
42.69326	1455.57745	42.69326	1424.86074	42.69326	1697.84847
42.74626	1462.56429	42.74626	1418.39861	42.74626	1726.78928
42.79926	1500.48404	42.79926	1434.78663	42.79926	1745.94653
42.85226	1436.834	  42.85226	1440.97784	42.85226	1705.63171
42.90526	1497.70158	42.90526	1449.73207	42.90526	1704.99351
42.95826	1459.76544	42.95826	1482.30108	42.95826	1703.90105
43.01126	1508.61563	43.01126	1437.11514	43.01126	1726.55267
43.06426	1483.93696	43.06426	1436.61771	43.06426	1695.93426
43.11726	1518.63593	43.11726	1427.62084	43.11726	1712.4672
43.17026	1476.92818	43.17026	1457.04117	43.17026	1681.64753
43.22326	1485.30766	43.22326	1426.55082	43.22326	1656.41885
43.27626	1476.61346	43.27626	1450.36421	43.27626	1687.39403
43.32926	1494.65177	43.32926	1508.5879	43.32926	1679.34471
43.38226	1551.88086	43.38226	1496.61547	43.38226	1709.74726
43.43526	1545.05762	43.43526	1474.82807	43.43526	1682.81792
43.48826	1525.75479	43.48826	1497.9585	43.48826	1707.37787
43.54126	1555.83526	43.54126	1504.56143	43.54126	1693.66223
43.59426	1528.19853	43.59426	1488.50919	43.59426	1717.94202
43.64726	1510.3372	 43.64726	1431.14578	43.64726	1753.71585
43.70026	1524.96396	43.70026	1435.98006	43.70026	1732.60302
43.75326	1527.19282	43.75326	1477.32447	43.75326	1734.3501
43.80626	1519.54527	43.80626	1476.44546	43.80626	1749.42449
43.85926	1469.36443	43.85926	1460.26298	43.85926	1731.25485
43.91226	1498.95349	43.91226	1480.12138	43.91226	1709.39812
43.96526	1540.72588	43.96526	1480.63291	43.96526	1757.59434
44.01826	1561.12602	44.01826	1472.38216	44.01826	1752.02093
44.07126	1518.21578	44.07126	1490.82178	44.07126	1743.50449
44.12426	1552.95934	44.12426	1443.35059	44.12426	1752.60934
44.17726	1609.36767	44.17726	1380.40899	44.17726	1715.39157
44.23026	1530.34982	44.23026	1432.12321	44.23026	1717.35639
44.28326	1553.26474	44.28326	1465.41179	44.28326	1750.85363
44.33626	1548.99277	44.33626	1472.37754	44.33626	1723.09185
44.38926	1530.08497	44.38926	1468.26968	44.38926	1726.18698
44.44226	1544.01049	44.44226	1509.01081	44.44226	1725.8925
44.49526	1525.6303	  44.49526	1489.93391	44.49526	1759.82892
44.54826	1520.01089	44.54826	1481.96916	44.54826	1799.98526
44.60126	1557.05116	44.60126	1485.38489	44.60126	1796.34273
44.65426	1550.65629	44.65426	1484.75847	44.65426	1774.68227
44.70726	1514.58012	44.70726	1523.96259	44.70726	1789.58662
44.76026	1517.47617	44.76026	1531.0883	44.76026	1821.63763
44.81326	1564.32389	44.81326	1528.86949	44.81326	1813.15445
44.86626	1531.02174	44.86626	1525.31657	44.86626	1750.90601
44.91926	1513.0422	  44.91926	1502.57966	44.91926	1722.12966
44.97226	1508.45412	44.97226	1460.59617	44.97226	1706.02189
45.02526	1538.46301	45.02526	1501.90856	45.02526	1744.88416
45.07826	1580.01132	45.07826	1507.98111	45.07826	1794.85458
45.13126	1593.18001	45.13126	1502.55224	45.13126	1748.93671
45.18426	1572.23409	45.18426	1448.51747	45.18426	1771.74395
45.23726	1547.9643	  45.23726	1502.82231	45.23726	1799.0135
45.29026	1562.53568	45.29026	1548.73836	45.29026	1751.07896
45.34326	1559.04119	45.34326	1526.31095	45.34326	1749.50751
45.39626	1616.71223	45.39626	1466.83646	45.39626	1757.21547
45.44926	1590.2995	  45.44926	1499.41613	45.44926	1804.31309
45.50226	1525.21699	45.50226	1498.89206	45.50226	1823.72695
45.55526	1546.61499	45.55526	1488.72565	45.55526	1810.61199
45.60826	1574.54	    45.60826	1532.16775	45.60826	1814.8611
45.66126	1556.93922	45.66126	1528.93902	45.66126	1833.49784
45.71426	1539.32343	45.71426	1491.05577	45.71426	1866.57054
45.76726	1591.82592	45.76726	1515.71554	45.76726	1843.89641
45.82026	1603.53869	45.82026	1579.05365	45.82026	1809.21852
45.87326	1585.21404	45.87326	1547.17886	45.87326	1885.97594
45.92626	1564.56992	45.92626	1504.4812	45.92626	1823.89475
45.97926	1618.56553	45.97926	1471.44454	45.97926	1811.60128
46.03226	1613.39089	46.03226	1516.51284	46.03226	1853.67653
46.08526	1510.43927	46.08526	1514.94401	46.08526	1869.58944
46.13826	1580.57334	46.13826	1524.44689	46.13826	1823.16155
46.19126	1624.84918	46.19126	1518.85888	46.19126	1859.77334
46.24426	1546.05602	46.24426	1511.27054	46.24426	1828.98036
46.29726	1515.11006	46.29726	1483.53064	46.29726	1871.22026
46.35026	1582.5187	  46.35026	1466.50358	46.35026	1913.30159
46.40326	1610.45444	46.40326	1506.51299	46.40326	1883.23274
46.45626	1627.06173	46.45626	1568.90562	46.45626	1820.46571
46.50926	1645.05258	46.50926	1581.68253	46.50926	1847.45081
46.56226	1667.4406	  46.56226	1541.46428	46.56226	1869.37371
46.61526	1682.96594	46.61526	1586.09616	46.61526	1829.32065
46.66826	1635.82221	46.66826	1563.08116	46.66826	1889.3255
46.72126	1659.40744	46.72126	1549.29011	46.72126	1859.02468
46.77426	1605.85075	46.77426	1586.7852	46.77426	1912.05567
46.82726	1634.39695	46.82726	1616.82367	46.82726	1914.53261
46.88026	1642.60937	46.88026	1634.40212	46.88026	1978.77101
46.93326	1672.08479	46.93326	1551.51827	46.93326	1930.59379
46.98626	1684.18857	46.98626	1548.51699	46.98626	1945.20224
47.03926	1631.25875	47.03926	1592.56983	47.03926	1888.62671
47.09226	1622.33212	47.09226	1508.97214	47.09226	1886.82122
47.14526	1666.42809	47.14526	1576.7232	47.14526	1936.15514
47.19826	1606.03766	47.19826	1521.85365	47.19826	1933.28895
47.25126	1586.63571	47.25126	1609.55929	47.25126	1938.79353
47.30426	1617.12835	47.30426	1475.90234	47.30426	1947.76554
47.35726	1558.02513	47.35726	1532.75403	47.35726	1858.55979
47.41026	1565.9264	  47.41026	1568.68139	47.41026	1916.44828
47.46326	1629.99251	47.46326	1567.01182	47.46326	1933.00906
47.51626	1605.36509	47.51626	1528.49713	47.51626	1913.65128
47.56926	1644.72435	47.56926	1582.74187	47.56926	1874.28891
47.62226	1627.44048	47.62226	1564.38124	47.62226	1943.28251
47.67526	1572.67711	47.67526	1440.02186	47.67526	1915.60137
47.72826	1616.64887	47.72826	1594.52542	47.72826	1881.00584
47.78126	1609.17492	47.78126	1481.78826	47.78126	1944.12285
47.83426	1616.39919	47.83426	1531.21915	47.83426	1942.70732
47.88726	1675.5145	  47.88726	1549.11651	47.88726	1898.4524
47.94026	1605.13089	47.94026	1553.9735	47.94026	1954.47927
47.99326	1588.28322	47.99326	1576.55664	47.99326	1924.0142
48.04626	1631.71179	48.04626	1570.10946	48.04626	1910.7147
48.09926	1644.23275	48.09926	1469.99548	48.09926	1968.94045
48.15226	1677.27232	48.15226	1534.3434	48.15226	1960.29257
48.20526	1556.22142	48.20526	1586.71836	48.20526	2018.44756
48.25826	1634.7864	   48.25826	1575.65277	48.25826	1990.73792
48.31126	1647.75947	48.31126	1600.20538	48.31126	1961.42135
48.36426	1645.63068	48.36426	1573.24938	48.36426	1919.99006
48.41726	1589.36389	48.41726	1577.93075	48.41726	1964.93948
48.47026	1644.89885	48.47026	1577.3501	48.47026	1950.02925
48.52326	1635.10955	48.52326	1616.73168	48.52326	1973.46794
48.57626	1640.23104	48.57626	1593.77618	48.57626	1978.08821
48.62926	1578.83306	48.62926	1597.21176	48.62926	2010.01755
48.68226	1637.99109	48.68226	1598.01145	48.68226	2007.75182
48.73526	1656.94604	48.73526	1594.29582	48.73526	1989.55934
48.78826	1660.76587	48.78826	1589.89128	48.78826	2031.59339
48.84126	1622.45941	48.84126	1602.96085	48.84126	1931.88146
48.89426	1644.70545	48.89426	1566.45666	48.89426	1947.86548
48.94726	1723.91621	48.94726	1624.16871	48.94726	1925.81379
49.00026	1653.74773	49.00026	1632.50167	49.00026	1947.91554
49.05326	1631.6989	49.05326	1655.66826	49.05326	2000.67894
49.10626	1594.49466	49.10626	1663.96395	49.10626	1908.90765
49.15926	1626.81371	49.15926	1626.71171	49.15926	1930.45437
49.21226	1604.55149	49.21226	1637.16496	49.21226	1978.56618
49.26526	1673.24249	49.26526	1590.20619	49.26526	1953.74905
49.31826	1748.28966	49.31826	1640.36235	49.31826	2038.1899
49.37126	1755.70191	49.37126	1688.49302	49.37126	2078.32685
49.42426	1659.9098	  49.42426	1638.7994	49.42426	2068.20447
49.47726	1650.8929	  49.47726	1650.19859	49.47726	2040.0969
49.53026	1660.55078	49.53026	1655.1058	49.53026	2062.01692
49.58326	1659.40204	49.58326	1717.05519	49.58326	2123.04095
49.63626	1699.31569	49.63626	1718.76716	49.63626	2141.7741
49.68926	1712.79231	49.68926	1680.61467	49.68926	2175.89951
49.74226	1719.0981	  49.74226	1731.34447	49.74226	2213.11663
49.79526	1757.17872	49.79526	1767.61632	49.79526	2192.85416
49.84826	1694.8282	  49.84826	1741.7197	49.84826	2234.00757
49.90126	1676.41352	49.90126	1757.59987	49.90126	2248.63281
49.95426	1758.42315	49.95426	1834.29998	49.95426	2269.13799
50.00726	1778.70072	50.00726	1859.87015	50.00726	2364.7674
50.06026	1777.65727	50.06026	1955.39409	50.06026	2458.91269
50.11326	1827.52622	50.11326	2037.21524	50.11326	2557.99029
50.16626	1892.40257	50.16626	2108.82239	50.16626	2663.11376
50.21926	1939.12151	50.21926	2212.71089	50.21926	2784.41898
50.27226	1989.99823	50.27226	2300.21087	50.27226	2973.47221
50.32526	2048.31694	50.32526	2454.41992	50.32526	3181.66413
50.37826	2154.24153	50.37826	2587.09147	50.37826	3483.46742
50.43126	2274.57467	50.43126	2692.03932	50.43126	3911.01208
50.48426	2335.30143	50.48426	2890.77021	50.48426	4469.10042
50.53726	2364.73095	50.53726	3062.24075	50.53726	5453.23685
50.59026	2322.15583	50.59026	3221.23971	50.59026	6975.20281
50.64326	2372.85941	50.64326	3396.39907	50.64326	8801.38788
50.69626	2459.58259	50.69626	3569.75678	50.69626	10726.60646
50.74926	2442.07162	50.74926	3674.8019	50.74926	11464.59896
50.80226	2407.53442	50.80226	3728.49418	50.80226	10858.60919
50.85526	2510.42181	50.85526	3778.02465	50.85526	9523.26079
50.90826	2532.55622	50.90826	3701.79832	50.90826	7824.18174
50.96126	2511.06346	50.96126	3593.91207	50.96126	6330.0522
51.01426	2529.73517	51.01426	3528.60813	51.01426	5290.04667
51.06726	2523.91895	51.06726	3431.40682	51.06726	4632.23575
51.12026	2491.60752	51.12026	3338.23379	51.12026	4193.33704
51.17326	2483.03515	51.17326	3225.17678	51.17326	3786.36726
51.22626	2504.48875	51.22626	3147.25746	51.22626	3602.02538
51.27926	2552.73361	51.27926	3192.04871	51.27926	3418.66414
51.33226	2682.13114	51.33226	3214.7086	51.33226	3304.08037
51.38526	2739.71739	51.38526	3277.46762	51.38526	3252.92902
51.43826	2827.1496	  51.43826	3493.22078	51.43826	3237.75746
51.49126	3033.26758	51.49126	3686.7789	51.49126	3281.97036
51.54426	3258.61556	51.54426	4131.55555	51.54426	3513.67537
51.59726	3632.2852	  51.59726	4831.81821	51.59726	3692.18309
51.65026	4207.0327	  51.65026	5746.78753	51.65026	4018.63511
51.70326	4783.77806	51.70326	6864.09647	51.70326	4629.29136
51.75626	5671.28302	51.75626	8509.11199	51.75626	5520.53752
51.80926	6783.55246	51.80926	10703.75805	51.80926	6857.72102
51.86226	8248.16062	51.86226	13672.83016	51.86226	8840.93021
51.91526	10169.02505	51.91526	16722.65781	51.91526	11683.19939
51.96826	12094.50184	51.96826	19426.17037	51.96826	15190.92592
52.02126	13889.64952	52.02126	21195.14166	52.02126	17225.38721
52.07426	15186.39257	52.07426	21062.21601	52.07426	17317.08978
52.12726	15141.3573	52.12726	19347.53206	52.12726	15410.65002
52.18026	14284.79696	52.18026	16634.42399	52.18026	12327.62846
52.23326	12522.38523	52.23326	13692.63981	52.23326	9438.29386
52.28626	10582.76436	52.28626	11026.18126	52.28626	7123.45563
52.33926	8511.73107	52.33926	8793.25908	52.33926	5301.0365
52.39226	6879.96595	52.39226	6989.21461	52.39226	4456.63782
52.44526	5578.6202	  52.44526	5894.24029	52.44526	3786.11716
52.49826	4652.74704	52.49826	5043.25243	52.49826	3303.09289
52.55126	4146.7611	  52.55126	4325.75204	52.55126	3074.13897
52.60426	3597.66086	52.60426	3750.08279	52.60426	2882.02901
52.65726	3102.45582	52.65726	3219.72501	52.65726	2807.31592
52.71026	2906.42427	52.71026	2986.93227	52.71026	2629.37014
52.76326	2689.58478	52.76326	2941.58849	52.76326	2479.76633
52.81626	2512.59659	52.81626	2585.51079	52.81626	2571.96603
52.86926	2393.02931	52.86926	2499.23483	52.86926	2406.23028
52.92226	2388.77248	52.92226	2441.50346	52.92226	2338.56388
52.97526	2289.47982	52.97526	2262.64223	52.97526	2295.20181
53.02826	2234.24721	53.02826	2149.64944	53.02826	2305.45872
53.08126	2108.33932	53.08126	2076.41346	53.08126	2179.44118
53.13426	2011.35693	53.13426	2083.76835	53.13426	2225.73372
53.18726	2023.7815	  53.18726	2090.90625	53.18726	2230.95385
53.24026	2068.57616	53.24026	2036.21918	53.24026	2207.00932
53.29326	1873.11442	53.29326	1928.89155	53.29326	2163.08726
53.34626	1910.94299	53.34626	1883.40232	53.34626	2189.68577
53.39926	1904.21916	53.39926	1912.98211	53.39926	2162.37092
53.45226	1869.41598	53.45226	1772.18396	53.45226	2176.91333
53.50526	1943.52894	53.50526	1807.46774	53.50526	2109.71994
53.55826	1856.70969	53.55826	1746.70238	53.55826	2127.59462
53.61126	1829.63535	53.61126	1781.90719	53.61126	2137.46533
53.66426	1806.87988	53.66426	1810.68437	53.66426	2107.69055
53.71726	1800.80028	53.71726	1778.94178	53.71726	2051.70338
53.77026	1754.82445	53.77026	1784.64315	53.77026	2116.77534
53.82326	1795.44986	53.82326	1713.92644	53.82326	2170.10139
53.87626	1792.58679	53.87626	1794.86496	53.87626	2084.94156
53.92926	1809.29674	53.92926	1748.10711	53.92926	2099.62793
53.98226	1769.95185	53.98226	1726.70957	53.98226	2147.40949
54.03526	1793.85398	54.03526	1681.79404	54.03526	2114.79714
54.08826	1680.65505	54.08826	1696.35579	54.08826	2121.27031
54.14126	1769.37827	54.14126	1739.30284	54.14126	2127.678
54.19426	1755.43908	54.19426	1660.84705	54.19426	2116.07249
54.24726	1730.21963	54.24726	1688.55402	54.24726	2096.03017
54.30026	1727.54003	54.30026	1669.02193	54.30026	2088.99956
54.35326	1734.82265	54.35326	1656.12192	54.35326	2031.52972
54.40626	1754.65364	54.40626	1644.31631	54.40626	2054.97419
54.45926	1737.02021	54.45926	1601.84156	54.45926	2072.56722
54.51226	1702.11802	54.51226	1708.07415	54.51226	2031.12902
54.56526	1758.30949	54.56526	1697.83566	54.56526	2093.81921
54.61826	1802.1643	  54.61826	1649.39561	54.61826	2080.92856
54.67126	1812.65638	54.67126	1665.04077	54.67126	2122.98637
54.72426	1803.00845	54.72426	1690.55459	54.72426	2063.12656
54.77726	1800.85276	54.77726	1651.43354	54.77726	2016.91123
54.83026	1759.17697	54.83026	1655.34475	54.83026	2081.43531
54.88326	1692.08817	54.88326	1718.25116	54.88326	2052.00468
54.93626	1706.87099	54.93626	1635.58233	54.93626	2082.76368
54.98926	1704.89551	54.98926	1645.55036	54.98926	2038.79732
55.04226	1717.02973	55.04226	1655.38732	55.04226	2084.47898
55.09526	1745.95349	55.09526	1648.20938	55.09526	2095.4516
55.14826	1782.18294	55.14826	1692.12647	55.14826	2084.61335
55.20126	1812.81169	55.20126	1674.56619	55.20126	2043.86376
55.25426	1748.12781	55.25426	1664.02055	55.25426	2020.89919
55.30726	1693.31377	55.30726	1700.50855	55.30726	2058.25399
55.36026	1709.44284	55.36026	1595.71812	55.36026	2079.88638
55.41326	1752.03333	55.41326	1611.13379	55.41326	2151.50442
55.46626	1755.95322	55.46626	1604.77634	55.46626	2106.49728
55.51926	1738.33902	55.51926	1621.80867	55.51926	2075.87834
55.57226	1745.2757	  55.57226	1649.27489	55.57226	2028.35672
55.62526	1697.22245	55.62526	1650.87678	55.62526	2006.76422
55.67826	1655.59611	55.67826	1634.96751	55.67826	2053.94149
55.73126	1703.96183	55.73126	1635.6801	55.73126	2146.78916
55.78426	1721.50658	55.78426	1628.7366	55.78426	2117.85463
55.83726	1711.17727	55.83726	1642.0207	55.83726	2075.03275
55.89026	1695.9674	  55.89026	1646.45391	55.89026	2063.76339
55.94326	1687.72908	55.94326	1674.90451	55.94326	2038.94134
55.99626	1755.44022	55.99626	1693.95257	55.99626	2022.0545
56.04926	1773.59138	56.04926	1651.99937	56.04926	2027.79828
56.10226	1698.16763	56.10226	1619.63161	56.10226	2070.06438
56.15526	1695.61485	56.15526	1632.65413	56.15526	2031.6983
56.20826	1717.8626	  56.20826	1640.27471	56.20826	2041.75167
56.26126	1712.33107	56.26126	1644.86192	56.26126	2076.68756
56.31426	1740.72953	56.31426	1646.75694	56.31426	2051.1478
56.36726	1746.97645	56.36726	1628.51619	56.36726	2067.72665
56.42026	1734.02085	56.42026	1651.56998	56.42026	2078.1296
56.47326	1759.69694	56.47326	1624.3331	56.47326	2029.92672
56.52626	1739.86452	56.52626	1633.48314	56.52626	2031.1326
56.57926	1741.36188	56.57926	1651.67692	56.57926	2018.61648
56.63226	1763.24179	56.63226	1612.3115	56.63226	2019.52076
56.68526	1718.56388	56.68526	1619.56343	56.68526	2047.15264
56.73826	1711.44428	56.73826	1602.10077	56.73826	2091.33035
56.79126	1719.36327	56.79126	1596.95858	56.79126	2106.34375
56.84426	1719.92099	56.84426	1613.07947	56.84426	2079.76664
56.89726	1716.78522	56.89726	1571.42168	56.89726	2087.56433
56.95026	1736.89492	56.95026	1635.24125	56.95026	2044.2672
57.00326	1740.11742	57.00326	1629.69111	57.00326	2084.43497
57.05626	1698.91163	57.05626	1631.46222	57.05626	2086.01434
57.10926	1716.26471	57.10926	1597.28065	57.10926	2051.17286
57.16226	1775.77656	57.16226	1591.39571	57.16226	2091.46142
57.21526	1768.91729	57.21526	1589.81847	57.21526	2149.56201
57.26826	1742.2823	  57.26826	1649.23019	57.26826	2081.57427
57.32126	1725.57785	57.32126	1589.27459	57.32126	2055.53614
57.37426	1725.94568	57.37426	1583.83977	57.37426	2058.90047
57.42726	1794.40403	57.42726	1643.70033	57.42726	2068.00919
57.48026	1801.36138	57.48026	1644.54061	57.48026	2092.82964
57.53326	1739.83998	57.53326	1642.40413	57.53326	2111.99604
57.58626	1740.02447	57.58626	1561.73961	57.58626	2151.59231
57.63926	1709.49674	57.63926	1634.30359	57.63926	2155.01172
57.69226	1706.88488	57.69226	1695.35181	57.69226	2145.18045
57.74526	1756.12617	57.74526	1638.68416	57.74526	2137.6354
57.79826	1749.79274	57.79826	1643.11999	57.79826	2178.01057
57.85126	1720.40804	57.85126	1634.27552	57.85126	2210.47288
57.90426	1737.89048	57.90426	1645.13453	57.90426	2184.17828
57.95726	1770.57963	57.95726	1640.1561	57.95726	2168.77001
58.01026	1803.0668	58.01026	1671.39351	58.01026	2165.38714
58.06326	1802.29563	58.06326	1624.55612	58.06326	2170.62096
58.11626	1822.65444	58.11626	1633.82072	58.11626	2150.37403
58.16926	1802.60983	58.16926	1659.04902	58.16926	2264.66568
58.22226	1849.90048	58.22226	1590.70952	58.22226	2262.34851
58.27526	1761.00281	58.27526	1639.91268	58.27526	2291.54609
58.32826	1771.07849	58.32826	1650.88069	58.32826	2389.98513
58.38126	1759.20888	58.38126	1650.13384	58.38126	2362.75164
58.43426	1801.36838	58.43426	1729.85225	58.43426	2367.66228
58.48726	1827.62648	58.48726	1727.46509	58.48726	2413.82901
58.54026	1844.49896	58.54026	1678.93335	58.54026	2623.62995
58.59326	1790.09966	58.59326	1672.97599	58.59326	2596.36269
58.64626	1811.79553	58.64626	1675.78261	58.64626	2628.03673
58.69926	1817.74367	58.69926	1729.17406	58.69926	2729.88161
58.75226	1800.11897	58.75226	1668.02874	58.75226	2980.94384
58.80526	1795.20922	58.80526	1761.00548	58.80526	3210.92877
58.85826	1924.61855	58.85826	1706.49004	58.85826	3277.70553
58.91126	1832.12796	58.91126	1801.89807	58.91126	3660.90613
58.96426	1802.59922	58.96426	1680.76986	58.96426	3948.90462
59.01726	1896.80491	59.01726	1672.08752	59.01726	4090.30442
59.07026	1794.37327	59.07026	1750.73876	59.07026	4474.70128
59.12326	1881.58221	59.12326	1719.9059	59.12326	4684.2856
59.17626	1804.17356	59.17626	1701.05636	59.17626	4729.06333
59.22926	1750.11138	59.22926	1703.34439	59.22926	4725.47668
59.28226	1833.70486	59.28226	1678.84791	59.28226	4483.3581
59.33526	1769.21228	59.33526	1758.18148	59.33526	4038.33599
59.38826	1841.19359	59.38826	1675.10999	59.38826	3686.35381
59.44126	1830.59969	59.44126	1743.46877	59.44126	3347.67823
59.49426	1895.27455	59.49426	1634.97393	59.49426	3148.16544
59.54726	1803.83393	59.54726	1750.37518	59.54726	2837.22577
59.60026	1789.88281	59.60026	1701.23575	59.60026	2767.67012
59.65326	1793.8839	59.65326	1747.91555	59.65326	2619.69594
59.70626	1827.47147	59.70626	1669.36602	59.70626	2490.93141
59.75926	1804.63262	59.75926	1719.33149	59.75926	2293.94597
59.81226	1789.7917	59.81226	1693.49515	59.81226	2291.54884
59.86526	1761.34537	59.86526	1706.08103	59.86526	2372.09014
59.91826	1776.13594	59.91826	1678.71123	59.91826	2273.59228
59.97126	1808.4672	59.97126	1707.16375	59.97126	2259.25823
60.02426	1795.7042	60.02426	1707.04833	60.02426	2226.37335
60.07726	1844.52642	60.07726	1702.18197	60.07726	2203.66148
60.13026	1771.22398	60.13026	1682.14445	60.13026	2121.02224
60.18326	1811.66119	60.18326	1593.77768	60.18326	2183.03009
60.23626	1751.4576	60.23626	1636.80707	60.23626	2194.23499
60.28926	1774.836	60.28926	1670.94844	60.28926	2124.11756
60.34226	1716.7311	60.34226	1593.76315	60.34226	2106.25573
60.39526	1772.21709	60.39526	1646.25248	60.39526	2172.15978
60.44826	1768.582	60.44826	1706.42109	60.44826	2124.69414
60.50126	1771.67328	60.50126	1646.48622	60.50126	2064.8104
60.55426	1766.09296	60.55426	1667.5192	60.55426	2076.19369
60.60726	1785.70434	60.60726	1571.40361	60.60726	2048.31942
60.66026	1744.64551	60.66026	1596.01672	60.66026	2046.19557
60.71326	1725.12641	60.71326	1632.82479	60.71326	2045.52926
60.76626	1721.51373	60.76626	1617.68781	60.76626	2074.65556
60.81926	1780.52587	60.81926	1614.1486	60.81926	2046.28287
60.87226	1785.28833	60.87226	1629.47917	60.87226	2060.1974
60.92526	1796.12221	60.92526	1632.63984	60.92526	2095.13987
60.97826	1776.41472	60.97826	1639.86723	60.97826	2007.81837
61.03126	1802.73111	61.03126	1631.6892	61.03126	2020.38577
61.08426	1825.88202	61.08426	1611.05449	61.08426	2070.10183
61.13726	1748.30827	61.13726	1583.68875	61.13726	2055.23933
61.19026	1772.3002	61.19026	1679.38329	61.19026	2007.98313
61.24326	1798.7361	61.24326	1675.15523	61.24326	2010.01453
61.29626	1790.77845	61.29626	1613.67432	61.29626	2066.43642
61.34926	1789.93474	61.34926	1648.18353	61.34926	2081.59338
61.40226	1795.62951	61.40226	1670.42842	61.40226	2024.50511
61.45526	1835.21333	61.45526	1693.60404	61.45526	2014.43888
61.50826	1758.82668	61.50826	1625.98533	61.50826	2023.20041
61.56126	1776.56303	61.56126	1600.98887	61.56126	2013.96514
61.61426	1788.26215	61.61426	1621.49898	61.61426	1961.66361
61.66726	1797.68298	61.66726	1598.82583	61.66726	1962.80818
61.72026	1793.29829	61.72026	1617.20562	61.72026	2044.4652
61.77326	1763.5784	61.77326	1629.97204	61.77326	2025.09799
61.82626	1737.71847	61.82626	1638.24836	61.82626	2038.42665
61.87926	1719.02595	61.87926	1695.68778	61.87926	2040.37953
61.93226	1780.02841	61.93226	1677.61401	61.93226	2074.52269
61.98526	1858.06591	61.98526	1659.47345	61.98526	2033.86458
62.03826	1828.27874	62.03826	1664.44801	62.03826	1953.60632
62.09126	1877.05797	62.09126	1663.10927	62.09126	1979.11455
62.14426	1889.68123	62.14426	1679.67116	62.14426	2008.04676
62.19726	1810.73756	62.19726	1665.28813	62.19726	2026.56613
62.25026	1818.60868	62.25026	1677.34607	62.25026	2001.9419
62.30326	1830.43051	62.30326	1678.15009	62.30326	1988.68712
62.35626	1787.04747	62.35626	1664.00036	62.35626	1950.57753
62.40926	1755.16543	62.40926	1663.59018	62.40926	1980.52249
62.46226	1800.95544	62.46226	1603.48892	62.46226	2005.33311
62.51526	1835.88909	62.51526	1609.9654	62.51526	1933.57931
62.56826	1816.26126	62.56826	1656.37051	62.56826	1975.98671
62.62126	1801.9759	62.62126	1656.90084	62.62126	1987.10352
62.67426	1809.26086	62.67426	1648.5457	62.67426	1943.36771
62.72726	1748.06783	62.72726	1650.14008	62.72726	1967.42492
62.78026	1763.23815	62.78026	1622.17714	62.78026	1982.936
62.83326	1782.64966	62.83326	1632.57974	62.83326	1932.22674
62.88626	1803.43695	62.88626	1646.05293	62.88626	1926.9083
62.93926	1729.29395	62.93926	1705.92339	62.93926	1969.13177
62.99226	1721.59968	62.99226	1658.48117	62.99226	1882.99068
63.04526	1779.47174	63.04526	1622.0526	63.04526	1902.40703
63.09826	1791.80777	63.09826	1680.23658	63.09826	1995.6861
63.15126	1842.10505	63.15126	1627.07245	63.15126	1986.68822
63.20426	1781.50394	63.20426	1680.76707	63.20426	1987.29138
63.25726	1805.79272	63.25726	1601.60238	63.25726	1994.01428
63.31026	1786.90762	63.31026	1617.71746	63.31026	1959.16837
63.36326	1764.26898	63.36326	1667.35289	63.36326	1955.42772
63.41626	1821.54332	63.41626	1678.50028	63.41626	1934.45762
63.46926	1818.66218	63.46926	1637.5828	63.46926	1923.75402
63.52226	1769.84427	63.52226	1613.33827	63.52226	1959.60818
63.57526	1791.73046	63.57526	1667.87466	63.57526	1935.52474
63.62826	1781.71645	63.62826	1628.02585	63.62826	1946.87152
63.68126	1754.68926	63.68126	1586.73929	63.68126	1911.15681
63.73426	1764.99019	63.73426	1619.95547	63.73426	1921.58345
63.78726	1799.71697	63.78726	1655.05992	63.78726	1908.42963
63.84026	1807.01295	63.84026	1652.84057	63.84026	1954.67586
63.89326	1863.88846	63.89326	1611.23504	63.89326	2043.53267
63.94626	1745.70512	63.94626	1648.11821	63.94626	1973.14254
63.99926	1726.7678	63.99926	1637.58987	63.99926	1977.12488
64.05226	1713.50187	64.05226	1606.6978	64.05226	1923.82571
64.10526	1710.14957	64.10526	1608.91295	64.10526	1977.85235
64.15826	1794.57774	64.15826	1654.4738	64.15826	1940.06474
64.21126	1762.08531	64.21126	1584.37064	64.21126	1944.46599
64.26426	1830.77753	64.26426	1631.86511	64.26426	1964.70518
64.31726	1823.82787	64.31726	1624.6248	64.31726	1877.9949
64.37026	1766.60623	64.37026	1634.81964	64.37026	1882.54632
64.42326	1754.59058	64.42326	1635.09429	64.42326	1952.82101
64.47626	1697.49251	64.47626	1603.50873	64.47626	1926.58449
64.52926	1738.86061	64.52926	1533.64228	64.52926	1991.38298
64.58226	1768.46711	64.58226	1610.26445	64.58226	1987.51103
64.63526	1806.26213	64.63526	1634.09023	64.63526	1940.27152
64.68826	1784.89956	64.68826	1557.96709	64.68826	1880.23042
64.74126	1786.66974	64.74126	1575.19804	64.74126	1990.49699
64.79426	1817.42883	64.79426	1627.03173	64.79426	1970.46639
64.84726	1788.30441	64.84726	1708.22492	64.84726	1992.79072
64.90026	1780.01751	64.90026	1690.02342	64.90026	2020.99781
64.95326	1800.91892	64.95326	1646.73839	64.95326	1993.24532
65.00626	1789.46509	65.00626	1614.1988	65.00626	1905.49783
65.05926	1760.37908	65.05926	1571.98535	65.05926	1987.26402
65.11226	1809.43827	65.11226	1681.91572	65.11226	1959.65486
65.16526	1795.36416	65.16526	1728.77833	65.16526	1948.61762
65.21826	1820.32962	65.21826	1643.50771	65.21826	1927.139
65.27126	1763.03812	65.27126	1718.84768	65.27126	2064.71089
65.32426	1860.93026	65.32426	1671.43263	65.32426	1996.74167
65.37726	1780.56649	65.37726	1655.44991	65.37726	1942.66626
65.43026	1753.55656	65.43026	1570.07264	65.43026	1948.74462
65.48326	1763.40348	65.48326	1678.51723	65.48326	1940.80392
65.53626	1808.34987	65.53626	1647.62522	65.53626	1984.12313
65.58926	1844.22247	65.58926	1589.87121	65.58926	1980.64665
65.64226	1793.26133	65.64226	1669.3588	65.64226	1956.78849
65.69526	1841.24141	65.69526	1658.42075	65.69526	2006.92884
65.74826	1825.5344	65.74826	1655.54084	65.74826	1946.65401
65.80126	1805.95359	65.80126	1624.08526	65.80126	1977.57954
65.85426	1837.59173	65.85426	1625.55245	65.85426	2012.47361
65.90726	1858.59628	65.90726	1647.44458	65.90726	1966.75629
65.96026	1849.92157	65.96026	1602.00882	65.96026	1919.10171
66.01326	1859.00453	66.01326	1662.09258	66.01326	1974.1683
66.06626	1855.01455	66.06626	1718.01153	66.06626	1991.2138
66.11926	1882.12532	66.11926	1682.4566	66.11926	1968.2495
66.17226	1796.08882	66.17226	1682.98127	66.17226	1947.90242
66.22526	1829.56098	66.22526	1709.59068	66.22526	1916.23579
66.27826	1840.28281	66.27826	1635.92468	66.27826	1905.48292
66.33126	1815.67856	66.33126	1646.16863	66.33126	1972.36433
66.38426	1802.299	66.38426	1642.19567	66.38426	1950.93768
66.43726	1839.88807	66.43726	1693.12298	66.43726	1931.88873
66.49026	1816.7368	66.49026	1651.47219	66.49026	1901.63895
66.54326	1823.81305	66.54326	1680.11917	66.54326	1885.8635
66.59626	1872.1689	66.59626	1710.76944	66.59626	1918.92642
66.64926	1889.31	66.64926	1691.40349	66.64926	1920.00591
66.70226	1902.20368	66.70226	1684.36903	66.70226	1939.13221
66.75526	1924.30207	66.75526	1705.24271	66.75526	2003.77374
66.80826	1848.94375	66.80826	1692.3998	66.80826	1995.84809
66.86126	1794.09476	66.86126	1667.45107	66.86126	2000.47282
66.91426	1822.81028	66.91426	1685.59098	66.91426	1991.48852
66.96726	1836.36328	66.96726	1656.16217	66.96726	2028.29481
67.02026	1818.10539	67.02026	1638.6849	67.02026	1987.01423
67.07326	1817.02705	67.07326	1675.4414	67.07326	2001.57091
67.12626	1821.95467	67.12626	1632.68712	67.12626	2018.36706
67.17926	1835.66418	67.17926	1628.68023	67.17926	1978.60953
67.23226	1849.23989	67.23226	1667.7915	67.23226	1974.47363
67.28526	1909.43222	67.28526	1654.15802	67.28526	1966.45497
67.33826	1925.92312	67.33826	1704.89914	67.33826	1906.36094
67.39126	1874.8775	67.39126	1738.1888	67.39126	1954.442
67.44426	1858.83382	67.44426	1686.21597	67.44426	1955.01401
67.49726	1862.63187	67.49726	1660.22692	67.49726	1975.54136
67.55026	1882.92423	67.55026	1662.56559	67.55026	2017.86309
67.60326	1848.24726	67.60326	1682.41134	67.60326	2017.57675
67.65626	1862.42666	67.65626	1699.95941	67.65626	1985.4891
67.70926	1887.32506	67.70926	1715.49458	67.70926	1943.67015
67.76226	1847.0295	67.76226	1708.38633	67.76226	1924.26168
67.81526	1857.53613	67.81526	1672.48717	67.81526	1965.0637
67.86826	1836.36565	67.86826	1671.74467	67.86826	1998.68631
67.92126	1834.33946	67.92126	1659.92716	67.92126	2028.00595
67.97426	1872.57785	67.97426	1665.42301	67.97426	2046.95822
68.02726	1863.20622	68.02726	1689.54945	68.02726	1978.30853
68.08026	1869.96519	68.08026	1675.25728	68.08026	1936.40801
68.13326	1848.45474	68.13326	1685.79151	68.13326	1959.45917
68.18626	1804.71851	68.18626	1649.79863	68.18626	1941.03675
68.23926	1840.19929	68.23926	1614.89772	68.23926	2007.09121
68.29226	1856.10716	68.29226	1665.48362	68.29226	1971.90917
68.34526	1804.93465	68.34526	1641.76272	68.34526	1947.19737
68.39826	1859.17801	68.39826	1634.87637	68.39826	1917.6893
68.45126	1908.13091	68.45126	1649.90837	68.45126	1941.71045
68.50426	1878.37627	68.50426	1639.81705	68.50426	1968.7663
68.55726	1884.6429	68.55726	1640.41191	68.55726	1936.75588
68.61026	1884.6214	68.61026	1674.89796	68.61026	1948.52272
68.66326	1961.75061	68.66326	1688.48419	68.66326	1975.30419
68.71626	1958.1604	68.71626	1659.11717	68.71626	1942.65579
68.76926	1847.54636	68.76926	1667.62513	68.76926	1932.65534
68.82226	1823.89118	68.82226	1685.08004	68.82226	1983.86106
68.87526	1876.7474	68.87526	1679.12857	68.87526	1948.61314
68.92826	1902.55337	68.92826	1680.55178	68.92826	1944.1729
68.98126	1852.12798	68.98126	1722.75037	68.98126	1957.93887
69.03426	1822.19676	69.03426	1663.27011	69.03426	1926.61691
69.08726	1847.80112	69.08726	1655.76186	69.08726	1952.59733
69.14026	1858.28449	69.14026	1656.99483	69.14026	1914.0809
69.19326	1879.41392	69.19326	1670.24679	69.19326	1905.08285
69.24626	1957.23874	69.24626	1690.20647	69.24626	1947.11459
69.29926	1941.69171	69.29926	1659.47067	69.29926	1925.22877
69.35226	1862.43041	69.35226	1664.84899	69.35226	1932.38155
69.40526	1870.6679	69.40526	1644.45507	69.40526	1956.60072
69.45826	1878.22988	69.45826	1657.38471	69.45826	1918.91736
69.51126	1888.31857	69.51126	1621.79146	69.51126	1958.53923
69.56426	1883.79711	69.56426	1634.26449	69.56426	1921.49909
69.61726	1863.36161	69.61726	1697.58926	69.61726	1912.25748
69.67026	1860.65347	69.67026	1687.23006	69.67026	1992.56105
69.72326	1878.42654	69.72326	1659.62363	69.72326	1977.67558
69.77626	1859.3787	69.77626	1668.42506	69.77626	1954.24761
69.82926	1914.33481	69.82926	1666.77472	69.82926	1857.79445
69.88226	1920.73091	69.88226	1694.27891	69.88226	1936.9496
69.93526	1904.43115	69.93526	1696.41507	69.93526	1985.91059
69.98826	1832.02764	69.98826	1787.86876	69.98826	1896.53318
70.04126	1850.03013	70.04126	1655.80735	70.04126	1946.37388
70.09426	1890.62338	70.09426	1679.87233	70.09426	1889.83017
70.14726	1855.32319	70.14726	1698.54288	70.14726	1931.62646
70.20026	1842.81265	70.20026	1660.83148	70.20026	1971.63868
70.25326	1852.13654	70.25326	1657.01187	70.25326	1933.60047
70.30626	1930.15586	70.30626	1681.17702	70.30626	1959.75555
70.35926	1847.78983	70.35926	1686.76627	70.35926	1916.96348
70.41226	1926.35658	70.41226	1631.09905	70.41226	1899.79853
70.46526	1830.54948	70.46526	1610.7892	70.46526	1887.53196
70.51826	1931.29926	70.51826	1633.19381	70.51826	1975.87891
70.57126	1890.16142	70.57126	1642.78718	70.57126	1940.01205
70.62426	1809.29512	70.62426	1705.01498	70.62426	1973.46012
70.67726	1861.6513	70.67726	1645.42075	70.67726	1889.5834
70.73026	1895.91132	70.73026	1659.93398	70.73026	1888.18883
70.78326	1853.9208	70.78326	1628.04634	70.78326	1961.10065
70.83626	1846.07528	70.83626	1631.40469	70.83626	2053.35281
70.88926	1850.80181	70.88926	1649.80315	70.88926	2019.06335
70.94226	1906.01574	70.94226	1640.63678	70.94226	1923.8314
70.99526	1833.16654	70.99526	1587.00948	70.99526	1944.25422
71.04826	1856.52795	71.04826	1682.12357	71.04826	1953.30276
71.10126	1862.75754	71.10126	1622.01102	71.10126	2016.83947
71.15426	1839.98218	71.15426	1680.65686	71.15426	1928.8225
71.20726	1899.74742	71.20726	1666.79756	71.20726	2028.48885
71.26026	1892.65472	71.26026	1692.89648	71.26026	1934.70433
71.31326	1940.79326	71.31326	1660.09559	71.31326	1921.91111
71.36626	1808.40307	71.36626	1710.83355	71.36626	1923.80846
71.41926	1887.72909	71.41926	1623.09983	71.41926	1945.04664
71.47226	1912.26095	71.47226	1632.31206	71.47226	1940.4846
71.52526	1859.12037	71.52526	1640.59427	71.52526	1962.16303
71.57826	1928.97208	71.57826	1628.66963	71.57826	1991.64169
71.63126	1892.77265	71.63126	1586.34496	71.63126	1969.82874
71.68426	1868.33547	71.68426	1659.16901	71.68426	1932.84182
71.73726	1933.16308	71.73726	1704.55407	71.73726	1946.28598
71.79026	1885.67631	71.79026	1641.80539	71.79026	1877.47041
71.84326	1833.33205	71.84326	1686.75728	71.84326	1984.59274
71.89626	1889.09517	71.89626	1694.82428	71.89626	1908.41974
71.94926	1862.4687	71.94926	1685.49464	71.94926	1906.40694
72.00226	1866.17886	72.00226	1645.87162	72.00226	1909.83132
72.05526	1833.22483	72.05526	1676.46347	72.05526	1945.97299
72.10826	1881.91811	72.10826	1707.5936	72.10826	1873.32504
72.16126	1899.03266	72.16126	1718.8728	72.16126	1886.24238
72.21426	1886.06142	72.21426	1667.42236	72.21426	1888.62047
72.26726	1895.53985	72.26726	1683.01206	72.26726	1904.61568
72.32026	1837.87484	72.32026	1681.63261	72.32026	1915.8754
72.37326	1863.21	72.37326	1687.1325	72.37326	1934.37019
72.42626	1927.83555	72.42626	1690.30488	72.42626	1974.1883
72.47926	1843.48156	72.47926	1679.7068	72.47926	1910.29965
72.53226	1821.19075	72.53226	1764.01264	72.53226	1946.89007
72.58526	1896.44617	72.58526	1731.21816	72.58526	1965.41354
72.63826	1913.14313	72.63826	1657.7136	72.63826	1977.35391
72.69126	1875.91701	72.69126	1673.47483	72.69126	1898.44979
72.74426	1863.57114	72.74426	1678.79675	72.74426	1923.66702
72.79726	1859.72935	72.79726	1629.72662	72.79726	1955.31014
72.85026	1875.33174	72.85026	1682.64492	72.85026	1961.17837
72.90326	1903.77625	72.90326	1685.39842	72.90326	1940.7059
72.95626	1890.35887	72.95626	1675.59657	72.95626	1913.55525
73.00926	1860.98588	73.00926	1660.48015	73.00926	1931.39975
73.06226	1850.69329	73.06226	1697.61574	73.06226	1936.85029
73.11526	1854.12785	73.11526	1720.69332	73.11526	1920.74552
73.16826	1874.77877	73.16826	1681.54272	73.16826	1944.45163
73.22126	1870.23857	73.22126	1667.59232	73.22126	1926.00002
73.27426	1890.09347	73.27426	1704.13196	73.27426	1912.53308
73.32726	1891.31886	73.32726	1690.9635	73.32726	1954.89451
73.38026	1859.60251	73.38026	1694.29653	73.38026	1973.88772
73.43326	1857.32667	73.43326	1723.39353	73.43326	1965.18899
73.48626	1864.42405	73.48626	1700.91188	73.48626	1922.66584
73.53926	1839.81177	73.53926	1672.10184	73.53926	1934.89169
73.59226	1857.4028	73.59226	1690.59115	73.59226	1979.46682
73.64526	1908.3227	73.64526	1700.78041	73.64526	1971.92142
73.69826	1828.99997	73.69826	1698.7135	73.69826	1947.70225
73.75126	1805.81627	73.75126	1691.59692	73.75126	1948.54466
73.80426	1896.51338	73.80426	1636.04357	73.80426	1931.32703
73.85726	1837.54864	73.85726	1662.64449	73.85726	1925.46683
73.91026	1845.85267	73.91026	1668.8448	73.91026	1961.79558
73.96326	1886.16545	73.96326	1639.45313	73.96326	1965.72463
74.01626	1858.41348	74.01626	1652.06977	74.01626	1902.07867
74.06926	1884.24006	74.06926	1656.82012	74.06926	1877.16556
74.12226	1867.89246	74.12226	1652.42585	74.12226	1876.12175
74.17526	1871.72006	74.17526	1709.738	74.17526	1930.69069
74.22826	1886.34574	74.22826	1667.44014	74.22826	1943.19791
74.28126	1864.67935	74.28126	1655.72037	74.28126	1934.66771
74.33426	1827.98302	74.33426	1665.58676	74.33426	1962.26918
74.38726	1805.06682	74.38726	1704.635	74.38726	1929.54836
74.44026	1818.30894	74.44026	1697.77974	74.44026	1926.71561
74.49326	1883.23921	74.49326	1674.11371	74.49326	1963.40378
74.54626	1851.74123	74.54626	1646.31707	74.54626	1992.48525
74.59926	1865.43491	74.59926	1734.54294	74.59926	1930.20965
74.65226	1881.91968	74.65226	1717.98053	74.65226	1897.04486
74.70526	1900.97245	74.70526	1729.93006	74.70526	1890.46519
74.75826	1903.36491	74.75826	1760.44269	74.75826	1939.16426
74.81126	1935.94149	74.81126	1785.44222	74.81126	1916.92809
74.86426	1848.97018	74.86426	1736.92541	74.86426	1949.39229
74.91726	1907.74802	74.91726	1729.91207	74.91726	1905.69222
74.97026	1971.62844	74.97026	1703.07951	74.97026	1902.23691
75.02326	1938.77904	75.02326	1711.75921	75.02326	1938.17045
75.07626	1944.26628	75.07626	1706.26074	75.07626	1927.01137
75.12926	1881.9252	75.12926	1729.34402	75.12926	1949.62323
75.18226	1885.36862	75.18226	1769.51448	75.18226	1914.45019
75.23526	1904.67557	75.23526	1783.67755	75.23526	1925.89256
75.28826	1959.14214	75.28826	1764.5614	75.28826	1985.71551
75.34126	1912.53966	75.34126	1729.57108	75.34126	1920.44265
75.39426	1907.19908	75.39426	1733.02794	75.39426	2007.56692
75.44726	1953.96003	75.44726	1823.09131	75.44726	2017.73815
75.50026	1928.62739	75.50026	1775.53162	75.50026	1976.98185
75.55326	1946.80796	75.55326	1818.42551	75.55326	1943.21991
75.60626	2031.08639	75.60626	1851.8842	75.60626	1972.50291
75.65926	2034.11017	75.65926	1943.59633	75.65926	1937.34846
75.71226	2029.43622	75.71226	1829.23776	75.71226	1925.7166
75.76526	2062.02021	75.76526	1857.52146	75.76526	1947.59662
75.81826	2145.12969	75.81826	1847.45946	75.81826	2005.43108
75.87126	2116.10854	75.87126	1992.22536	75.87126	2026.31672
75.92426	2124.4543	75.92426	2085.37784	75.92426	1988.59295
75.97726	2259.96557	75.97726	2115.73668	75.97726	2044.65389
76.03026	2268.53112	76.03026	2112.53	76.03026	2068.38439
76.08326	2291.09924	76.08326	2223.7368	76.08326	2122.64404
76.13626	2339.63865	76.13626	2201.31289	76.13626	2158.71835
76.18926	2391.03682	76.18926	2255.50991	76.18926	2154.4245
76.24226	2443.45325	76.24226	2372.14879	76.24226	2233.87374
76.29526	2477.69155	76.29526	2435.60618	76.29526	2332.0783
76.34826	2495.48981	76.34826	2473.86839	76.34826	2393.18442
76.40126	2511.66698	76.40126	2432.96077	76.40126	2421.42501
76.45426	2515.60129	76.45426	2476.08132	76.45426	2472.99204
76.50726	2574.79224	76.50726	2482.99478	76.50726	2472.02538
76.56026	2661.99785	76.56026	2465.33597	76.56026	2570.45606
76.61326	2657.70158	76.61326	2523.1999	76.61326	2465.16196
76.66626	2636.84331	76.66626	2399.74739	76.66626	2475.67727
76.71926	2670.1041	76.71926	2426.22655	76.71926	2498.73688
76.77226	2639.71636	76.77226	2313.89116	76.77226	2371.89158
76.82526	2565.59718	76.82526	2304.44665	76.82526	2366.72514
76.87826	2587.27157	76.87826	2177.87188	76.87826	2320.59355
76.93126	2465.32587	76.93126	2116.19738	76.93126	2262.24287
76.98426	2451.71087	76.98426	2156.11821	76.98426	2191.12498
77.03726	2391.48744	77.03726	2122.45235	77.03726	2107.47968
77.09026	2294.33371	77.09026	2110.40798	77.09026	2077.15275
77.14326	2327.42989	77.14326	1959.0298	77.14326	2044.29066
77.19626	2411.96299	77.19626	1981.76353	77.19626	2070.752
77.24926	2304.26913	77.24926	1899.22714	77.24926	2059.4037
77.30226	2206.93453	77.30226	1919.16788	77.30226	2036.17293
77.35526	2225.14446	77.35526	1854.72893	77.35526	1967.54472
77.40826	2078.59899	77.40826	1849.0794	77.40826	2015.8371
77.46126	2136.81764	77.46126	1819.79383	77.46126	1997.3726
77.51426	1989.31646	77.51426	1791.07132	77.51426	1989.82826
77.56726	2010.05169	77.56726	1830.40746	77.56726	1967.26494
77.62026	1986.27109	77.62026	1793.82021	77.62026	1946.26083
77.67326	2033.03428	77.67326	1790.62651	77.67326	1943.00144
77.72626	2061.74824	77.72626	1859.8338	77.72626	2000.13244
77.77926	1986.97254	77.77926	1751.57206	77.77926	2011.06871
77.83226	1935.16844	77.83226	1742.82312	77.83226	1996.15247
77.88526	1919.44446	77.88526	1758.81196	77.88526	2000.01593
77.93826	1965.49824	77.93826	1759.04363	77.93826	1981.86229
77.99126	1978.18005	77.99126	1729.50321	77.99126	1981.16784
78.04426	1966.72867	78.04426	1725.79433	78.04426	1937.9237
78.09726	2019.45032	78.09726	1726.66347	78.09726	1966.27994
78.15026	1926.7623	78.15026	1728.03265	78.15026	1993.76992
78.20326	1941.71326	78.20326	1721.42639	78.20326	1969.36063
78.25626	2009.85957	78.25626	1671.22905	78.25626	2013.59091
78.30926	1965.74457	78.30926	1684.46993	78.30926	1966.64503
78.36226	1946.38314	78.36226	1706.98047	78.36226	1981.72321
78.41526	1920.67417	78.41526	1682.66864	78.41526	2033.93532
78.46826	1876.01919	78.46826	1710.01321	78.46826	2023.99917
78.52126	1864.7045	78.52126	1689.38879	78.52126	1987.55813
78.57426	1865.47739	78.57426	1663.36066	78.57426	1985.41013
78.62726	1933.77418	78.62726	1695.65127	78.62726	1994.40547
78.68026	1889.10325	78.68026	1665.78142	78.68026	1992.82436
78.73326	1851.01845	78.73326	1645.2049	78.73326	1980.16196
78.78626	1871.83902	78.78626	1712.03681	78.78626	1957.27345
78.83926	1913.54204	78.83926	1710.22178	78.83926	1982.96182
78.89226	1894.98923	78.89226	1661.19889	78.89226	1979.97347
78.94526	1897.71342	78.94526	1676.2216	78.94526	1986.2771
78.99826	1873.91636	78.99826	1708.78161	78.99826	1966.9731
79.05126	1873.95551	79.05126	1690.33886	79.05126	1904.36885
79.10426	1891.87365	79.10426	1676.03531	79.10426	1927.0138
79.15726	1912.96056	79.15726	1696.9004	79.15726	1986.69535
79.21026	1916.24989	79.21026	1691.15971	79.21026	1988.90356
79.26326	1885.31682	79.26326	1674.31886	79.26326	1933.35509
79.31626	1896.53788	79.31626	1653.99945	79.31626	2000.89516
79.36926	1964.30906	79.36926	1688.51177	79.36926	2048.85548
79.42226	1941.261	79.42226	1665.21859	79.42226	2032.12238
79.47526	1915.91956	79.47526	1638.78	79.47526	1969.49134
79.52826	1938.30584	79.52826	1630.1475	79.52826	1951.62211
79.58126	1913.10909	79.58126	1657.04981	79.58126	1926.9533
79.63426	1904.81806	79.63426	1706.36687	79.63426	1922.99062
79.68726	1901.06251	79.68726	1685.19631	79.68726	1955.64371
79.74026	1932.44063	79.74026	1627.89902	79.74026	1907.30152
79.79326	1961.5222	79.79326	1658.21342	79.79326	1883.29647
79.84626	1898.09988	79.84626	1688.8939	79.84626	1921.69107
79.89926	1895.91372	79.89926	1624.41553	79.89926	1873.76456
79.95226	1908.17027	79.95226	1614.09896	79.95226	1905.09812
80.00526	1892.62163	80.00526	1665.30291	80.00526	1888.05982
80.05826	1859.44381	80.05826	1657.87079	80.05826	1892.43888
80.11126	1899.40422	80.11126	1635.31433	80.11126	1901.13193
80.16426	1982.66516	80.16426	1621.12986	80.16426	1930.66479
80.21726	1917.3796	80.21726	1594.34253	80.21726	1948.49675
80.27026	1905.84799	80.27026	1662.17534	80.27026	1951.38085
80.32326	1869.61497	80.32326	1632.25321	80.32326	1979.51246
80.37626	1832.05643	80.37626	1614.85278	80.37626	1932.44692
80.42926	1853.83952	80.42926	1591.12046	80.42926	1969.11206
80.48226	1917.70167	80.48226	1628.42001	80.48226	1966.64866
80.53526	1918.57995	80.53526	1694.67666	80.53526	1927.95848
80.58826	1909.41039	80.58826	1723.48766	80.58826	1920.80718
80.64126	1917.08852	80.64126	1698.29806	80.64126	1934.04099
80.69426	1861.25184	80.69426	1652.33147	80.69426	1951.91285
80.74726	1912.48177	80.74726	1653.28542	80.74726	1950.92503
80.80026	1855.78718	80.80026	1606.84725	80.80026	1935.05441
80.85326	1886.75163	80.85326	1585.77986	80.85326	2005.8853
80.90626	1932.10848	80.90626	1581.24654	80.90626	1955.21235
80.95926	1936.20346	80.95926	1555.62451	80.95926	1959.73525
81.01226	1892.59717	81.01226	1639.01417	81.01226	1933.53833
81.06526	1896.40055	81.06526	1639.48046	81.06526	1958.9093
81.11826	1984.69662	81.11826	1605.95944	81.11826	1974.54034
81.17126	1899.20511	81.17126	1604.60157	81.17126	2026.32515
81.22426	1939.86122	81.22426	1655.28194	81.22426	1933.20433
81.27726	1922.5237	81.27726	1661.29408	81.27726	1928.43459
81.33026	1900.97237	81.33026	1662.48978	81.33026	1973.48597
81.38326	1888.82764	81.38326	1665.51717	81.38326	1921.05288
81.43626	1893.76721	81.43626	1664.32351	81.43626	1884.53154
81.48926	1887.33355	81.48926	1633.29181	81.48926	1896.22686
81.54226	1886.01351	81.54226	1579.71384	81.54226	1932.64959
81.59526	1859.86593	81.59526	1616.46215	81.59526	1933.65595
81.64826	1904.4524	81.64826	1634.46087	81.64826	1969.123
81.70126	1949.27663	81.70126	1692.07137	81.70126	1981.13283
81.75426	1895.58156	81.75426	1654.06414	81.75426	1957.74226
81.80726	1827.90713	81.80726	1612.45466	81.80726	1961.99354
81.86026	1870.6175	81.86026	1626.43576	81.86026	1923.58026
81.91326	1929.65864	81.91326	1639.12594	81.91326	1907.0471
81.96626	1806.81104	81.96626	1644.68832	81.96626	1947.16751
82.01926	1851.84594	82.01926	1662.0117	82.01926	1995.34707
82.07226	1909.36647	82.07226	1610.56586	82.07226	1954.15034
82.12526	1951.48396	82.12526	1704.28046	82.12526	1928.90944
82.17826	1926.77501	82.17826	1700.23772	82.17826	1895.94394
82.23126	1920.12816	82.23126	1625.4608	82.23126	1906.78485
82.28426	1968.52689	82.28426	1656.68375	82.28426	1877.31174
82.33726	1826.1301	82.33726	1695.98024	82.33726	1888.00452
82.39026	1897.35475	82.39026	1691.23828	82.39026	2047.29075
82.44326	1936.00762	82.44326	1599.41271	82.44326	1959.93241
82.49626	1824.95271	82.49626	1623.659	82.49626	1898.21649
82.54926	1897.83405	82.54926	1680.83517	82.54926	1871.04803
82.60226	1944.27991	82.60226	1599.04526	82.60226	1927.13431
82.65526	1888.17132	82.65526	1685.49758	82.65526	1948.64039
82.70826	1921.28354	82.70826	1690.16486	82.70826	1905.81533
82.76126	1857.5108	82.76126	1633.58926	82.76126	1888.95206
82.81426	1943.57306	82.81426	1640.77338	82.81426	1900.73747
82.86726	1963.01104	82.86726	1640.10876	82.86726	1910.22416
82.92026	1836.28837	82.92026	1631.11111	82.92026	1992.9725
82.97326	1879.78959	82.97326	1637.98189	82.97326	1908.41802
83.02626	1911.60029	83.02626	1682.30513	83.02626	1969.3689
83.07926	1863.49443	83.07926	1647.89939	83.07926	2016.2915
83.13226	1909.98454	83.13226	1659.17695	83.13226	1925.4119
83.18526	1887.00646	83.18526	1687.80571	83.18526	2018.46371
83.23826	1925.21325	83.23826	1665.63286	83.23826	1921.02648
83.29126	1855.93398	83.29126	1674.62319	83.29126	1954.50389
83.34426	1925.46247	83.34426	1639.5976	83.34426	1965.46275
83.39726	1956.75514	83.39726	1615.81211	83.39726	1989.13041
83.45026	1915.20439	83.45026	1686.93521	83.45026	1920.44995
83.50326	1910.81898	83.50326	1757.2185	83.50326	1947.01904
83.55626	1879.35849	83.55626	1724.81983	83.55626	1927.43165
83.60926	1866.48715	83.60926	1690.8843	83.60926	1920.07387
83.66226	1954.56415	83.66226	1685.60676	83.66226	1888.69504
83.71526	1901.76405	83.71526	1650.39555	83.71526	1887.94168
83.76826	1853.62131	83.76826	1644.47326	83.76826	1886.11238
83.82126	1872.17706	83.82126	1671.64837	83.82126	1919.66828
83.87426	1877.78869	83.87426	1633.36896	83.87426	1936.57644
83.92726	1923.46291	83.92726	1702.8543	83.92726	1891.19636
83.98026	1866.60934	83.98026	1722.96799	83.98026	1858.24589
84.03326	1799.72144	84.03326	1704.43041	84.03326	1911.28672
84.08626	1873.41623	84.08626	1701.21204	84.08626	1919.11606
84.13926	1929.73619	84.13926	1714.9429	84.13926	1972.175
84.19226	1903.15925	84.19226	1742.59982	84.19226	1927.23769
84.24526	1926.83285	84.24526	1692.43945	84.24526	1924.27686
84.29826	1867.32915	84.29826	1671.27033	84.29826	1962.61055
84.35126	1909.16398	84.35126	1741.94922	84.35126	1966.67907
84.40426	1886.36419	84.40426	1721.15122	84.40426	1967.95593
84.45726	1934.2918	84.45726	1646.48174	84.45726	1921.66135
84.51026	1933.58505	84.51026	1669.46409	84.51026	1944.16464
84.56326	1917.51024	84.56326	1691.63405	84.56326	1915.37779
84.61626	1893.97292	84.61626	1715.36442	84.61626	1906.66378
84.66926	1863.43556	84.66926	1672.64926	84.66926	1914.98398
84.72226	1864.66117	84.72226	1709.76474	84.72226	1888.44199
84.77526	1861.97119	84.77526	1668.19663	84.77526	1927.99184
84.82826	1933.28035	84.82826	1678.52822	84.82826	1909.65315
84.88126	1897.20748	84.88126	1720.6337	84.88126	1916.06259
84.93426	1865.12684	84.93426	1721.78223	84.93426	1977.64774
84.98726	1940.22718	84.98726	1724.67765	84.98726	1968.00351
85.04026	1922.21341	85.04026	1692.09738	85.04026	1912.53397
85.09326	1896.0258	85.09326	1664.46866	85.09326	1881.92696
85.14626	1960.93241	85.14626	1712.98999	85.14626	1940.86176
85.19926	1958.35406	85.19926	1714.01382	85.19926	1928.55786
85.25226	1915.48564	85.25226	1699.03089	85.25226	1949.58074
85.30526	1894.54282	85.30526	1709.93426	85.30526	1984.66326
85.35826	1921.43857	85.35826	1717.9464	85.35826	1956.11767
85.41126	1940.26191	85.41126	1735.34841	85.41126	1949.18195
85.46426	1949.97917	85.46426	1739.93822	85.46426	2000.89255
85.51726	1938.52522	85.51726	1720.98614	85.51726	2005.8695
85.57026	1968.44228	85.57026	1672.68961	85.57026	1947.24531
85.62326	1943.66119	85.62326	1634.72176	85.62326	1926.7073
85.67626	1910.07511	85.67626	1629.45341	85.67626	1893.02259
85.72926	1952.31684	85.72926	1702.52461	85.72926	1876.92015
85.78226	1921.92903	85.78226	1723.41874	85.78226	1918.34232
85.83526	1863.77647	85.83526	1690.39118	85.83526	1937.8069
85.88826	1891.11194	85.88826	1683.84243	85.88826	1940.505
85.94126	1911.20198	85.94126	1700.49334	85.94126	1948.34868
85.99426	1886.90564	85.99426	1704.35687	85.99426	1927.76408
86.04726	1891.3123	86.04726	1710.32542	86.04726	1936.04311
86.10026	1966.30812	86.10026	1709.54749	86.10026	1952.89284
86.15326	1936.45384	86.15326	1696.17815	86.15326	1954.3584
86.20626	1911.98457	86.20626	1732.8901	86.20626	1956.67292
86.25926	1941.94636	86.25926	1736.49234	86.25926	1909.49648
86.31226	1951.96506	86.31226	1745.08687	86.31226	1965.23915
86.36526	1977.31395	86.36526	1772.39148	86.36526	1916.19339
86.41826	1981.30073	86.41826	1760.67711	86.41826	1960.05729
86.47126	1892.06131	86.47126	1690.21173	86.47126	1953.81375
86.52426	1896.58465	86.52426	1785.16493	86.52426	1970.82939
86.57726	1945.52948	86.57726	1776.63922	86.57726	1937.38356
86.63026	1913.7503	86.63026	1734.61844	86.63026	1925.91559
86.68326	1948.05279	86.68326	1742.6963	86.68326	2007.1803
86.73626	1918.89939	86.73626	1773.71579	86.73626	1907.76616
86.78926	1920.08081	86.78926	1682.54933	86.78926	1900.67792
86.84226	1907.98077	86.84226	1682.20674	86.84226	1986.11383
86.89526	1940.61458	86.89526	1701.1957	86.89526	1933.59584
86.94826	1913.76751	86.94826	1753.93832	86.94826	1969.27964
87.00126	1877.56075	87.00126	1699.67802	87.00126	1956.75972
87.05426	1901.82106	87.05426	1687.0657	87.05426	1980.82162
87.10726	1958.20483	87.10726	1695.39077	87.10726	2032.28628
87.16026	1965.41275	87.16026	1737.37842	87.16026	2071.55596
87.21326	1894.62569	87.21326	1757.74391	87.21326	2057.06596
87.26626	1876.77807	87.26626	1769.33051	87.26626	2115.69877
87.31926	1914.54274	87.31926	1752.17614	87.31926	1951.49286
87.37226	1908.03379	87.37226	1747.28187	87.37226	1987.77897
87.42526	1938.36854	87.42526	1752.25925	87.42526	1991.89312
87.47826	1941.24676	87.47826	1768.91702	87.47826	2011.33663
87.53126	1990.11275	87.53126	1771.01269	87.53126	1916.70945
87.58426	2014.05092	87.58426	1725.0193	87.58426	2070.95056
87.63726	1945.87084	87.63726	1801.0874	87.63726	2021.60423
87.69026	1907.73114	87.69026	1824.65433	87.69026	2025.13532
87.74326	1940.32346	87.74326	1799.06612	87.74326	1968.40376
87.79626	1885.77576	87.79626	1759.47965	87.79626	2071.92208
87.84926	1958.75737	87.84926	1849.86321	87.84926	2139.65204
87.90226	1871.18236	87.90226	1812.92376	87.90226	2118.14427
87.95526	1932.68132	87.95526	1720.2367	87.95526	2080.31837
88.00826	1908.69345	88.00826	1823.26876	88.00826	2057.56863
88.06126	1884.39875	88.06126	1808.30189	88.06126	2057.01474
88.11426	1937.6398	88.11426	1805.03371	88.11426	2146.39191
88.16726	1875.86078	88.16726	1781.85723	88.16726	2173.60472
88.22026	1933.76765	88.22026	1832.49435	88.22026	2128.63077
88.27326	1913.1514	88.27326	1874.72901	88.27326	2184.92536
88.32626	1969.86888	88.32626	1859.27631	88.32626	2274.69047
88.37926	2027.96785	88.37926	1800.6631	88.37926	2205.92175
88.43226	1951.25093	88.43226	1770.58946	88.43226	2398.34352
88.48526	1933.2299	88.48526	1840.08147	88.48526	2313.48204
88.53826	1891.56341	88.53826	1816.25551	88.53826	2463.90865
88.59126	1956.31427	88.59126	1925.05692	88.59126	2611.0748
88.64426	1960.18242	88.64426	1827.26566	88.64426	2714.18385
88.69726	1953.42907	88.69726	1820.0284	88.69726	2885.07501
88.75026	1873.08659	88.75026	1739.30029	88.75026	2837.12276
88.80326	1907.26532	88.80326	1866.17128	88.80326	2845.38361
88.85626	1960.18649	88.85626	1745.68488	88.85626	2889.29667
88.90926	1924.36472	88.90926	1798.82592	88.90926	2761.50924
88.96226	1918.48542	88.96226	1864.81421	88.96226	2625.40819
89.01526	1912.86335	89.01526	1788.04696	89.01526	2636.53596
89.06826	1930.76976	89.06826	1817.48458	89.06826	2621.78182
89.12126	1908.67892	89.12126	1804.37953	89.12126	2455.87039
89.17426	1919.20669	89.17426	1737.06501	89.17426	2403.52603
89.22726	1939.45217	89.22726	1787.46201	89.22726	2352.57068
89.28026	1878.69096	89.28026	1783.36757	89.28026	2276.20945
89.33326	1877.32278	89.33326	1780.09542	89.33326	2321.13929
89.38626	1914.88492	89.38626	1746.07147	89.38626	2263.07062
89.43926	1931.46742	89.43926	1738.52481	89.43926	2148.47953
89.49226	1931.76487	89.49226	1723.77695	89.49226	2207.15655
89.54526	1956.754	89.54526	1781.07369	89.54526	2215.27589
89.59826	1954.65417	89.59826	1708.8755	89.59826	2151.82651
89.65126	1914.12178	89.65126	1802.21951	89.65126	2054.14187
89.70426	1949.69264	89.70426	1846.57096	89.70426	2133.9643
89.75726	1892.69415	89.75726	1711.07689	89.75726	2061.20866
89.81026	1915.76129	89.81026	1745.23905	89.81026	2083.09905
89.86326	1903.53371	89.86326	1785.1345	89.86326	2018.89621
89.91626	1916.92225	89.91626	1750.40586	89.91626	2046.46997
89.96926	1884.56358	89.96926	1720.49352	89.96926	2111.88274
90.02226	1898.76849	90.02226	1751.94419	90.02226	2133.11977
90.07526	1870.38761	90.07526	1715.53539	90.07526	2134.12039
90.12826	1860.67379	90.12826	1685.59362	90.12826	2112.73144
90.18126	1891.74192	90.18126	1724.56424	90.18126	2080.01059
90.23426	1920.60176	90.23426	1760.17741	90.23426	2022.61044
90.28726	1879.95616	90.28726	1772.47296	90.28726	2071.96493
90.34026	1913.88623	90.34026	1732.45199	90.34026	2124.85709
90.39326	1942.94946	90.39326	1712.4931	90.39326	2126.22952
90.44626	1947.82484	90.44626	1747.92465	90.44626	2100.62091
90.49926	1920.36802	90.49926	1777.98262	90.49926	2054.04228
90.55226	1888.0948	90.55226	1787.56844	90.55226	1995.49931
90.60526	1893.2146	90.60526	1761.22778	90.60526	2050.32331
90.65826	1902.22693	90.65826	1801.46421	90.65826	2113.47476
90.71126	1864.12213	90.71126	1809.63284	90.71126	2086.83366
90.76426	1905.82705	90.76426	1754.83032	90.76426	2063.56155
90.81726	1890.5784	90.81726	1758.37902	90.81726	2103.75554
90.87026	1903.33337	90.87026	1758.53124	90.87026	2101.32943
90.92326	1946.34466	90.92326	1734.86845	90.92326	2086.68266
90.97626	1918.79133	90.97626	1725.0708	90.97626	2073.62847
91.02926	1915.44242	91.02926	1710.64938	91.02926	2072.28996
91.08226	1926.54656	91.08226	1711.61053	91.08226	2079.92027
91.13526	1938.19259	91.13526	1734.75495	91.13526	2063.9382
91.18826	1875.08027	91.18826	1770.10715	91.18826	2064.14612
91.24126	1878.45225	91.24126	1803.04016	91.24126	2056.39445
91.29426	1939.09417	91.29426	1795.88898	91.29426	2063.21895
91.34726	1942.76024	91.34726	1737.42356	91.34726	2033.07347
91.40026	1882.76595	91.40026	1728.23584	91.40026	1993.37473
91.45326	1890.18298	91.45326	1690.8711	91.45326	2029.02819
91.50626	1889.20008	91.50626	1669.22466	91.50626	2027.4604
91.55926	1837.10216	91.55926	1684.6696	91.55926	2026.68237
91.61226	1862.86109	91.61226	1741.89198	91.61226	2048.55684
91.66526	1910.54517	91.66526	1747.59209	91.66526	2052.41084
91.71826	1938.7257	91.71826	1749.53221	91.71826	2083.27752
91.77126	1915.04153	91.77126	1733.90658	91.77126	2033.33748
91.82426	1903.21978	91.82426	1709.96232	91.82426	2013.10788
91.87726	1853.58213	91.87726	1705.09112	91.87726	2053.55047
91.93026	1805.47667	91.93026	1676.08389	91.93026	2056.6744
91.98326	1846.06804	91.98326	1648.49811	91.98326	2043.42848
92.03626	1880.6941	92.03626	1705.44759	92.03626	2101.44721
92.08926	1847.78563	92.08926	1699.1077	92.08926	2117.12412
92.14226	1819.72318	92.14226	1679.64005	92.14226	2055.82149
92.19526	1880.3543	92.19526	1726.97532	92.19526	1996.95366
92.24826	1926.6198	92.24826	1734.63187	92.24826	1986.23967
92.30126	1858.39665	92.30126	1724.73217	92.30126	1978.74043
92.35426	1847.52045	92.35426	1716.50989	92.35426	2011.13889
92.40726	1912.07962	92.40726	1724.25495	92.40726	2054.27929
92.46026	1893.4813	92.46026	1724.05837	92.46026	2018.79767
92.51326	1872.51623	92.51326	1732.00903	92.51326	2042
92.56626	1863.94261	92.56626	1732.73588	92.56626	2058.05012
92.61926	1873.53295	92.61926	1705.13333	92.61926	2015.24024
92.67226	1859.91728	92.67226	1701.67475	92.67226	1995.79755
92.72526	1890.39335	92.72526	1721.88156	92.72526	2038.82902
92.77826	1911.14849	92.77826	1733.37516	92.77826	2038.28912
92.83126	1878.61689	92.83126	1738.23032	92.83126	1968.2433
92.88426	1939.98283	92.88426	1771.55638	92.88426	1956.89557
92.93726	1904.18247	92.93726	1763.38101	92.93726	1942.38229
92.99026	1904.65943	92.99026	1751.69413	92.99026	2058.79998
93.04326	1875.0567	93.04326	1815.60841	93.04326	2070.40033
93.09626	1880.91475	93.09626	1711.54973	93.09626	2009.35808
93.14926	1853.79993	93.14926	1720.22568	93.14926	2004.16966
93.20226	1817.75274	93.20226	1749.32608	93.20226	1981.56899
93.25526	1855.13165	93.25526	1698.60929	93.25526	1984.15648
93.30826	1901.79679	93.30826	1721.15641	93.30826	2026.68428
93.36126	1879.24628	93.36126	1738.44819	93.36126	1977.37552
93.41426	1888.68129	93.41426	1754.49001	93.41426	2020.78069
93.46726	1900.9812	93.46726	1718.53974	93.46726	2012.30494
93.52026	1933.3989	93.52026	1775.01355	93.52026	1996.24486
93.57326	1852.77787	93.57326	1758.31643	93.57326	1980.74335
93.62626	1890.30847	93.62626	1747.60058	93.62626	1996.0146
93.67926	1847.39792	93.67926	1742.26089	93.67926	2014.12017
93.73226	1932.32322	93.73226	1732.41797	93.73226	1958.40685
93.78526	1873.05646	93.78526	1703.92372	93.78526	1976.3541
93.83826	1894.47821	93.83826	1718.65541	93.83826	2066.9626
93.89126	1955.20991	93.89126	1770.32723	93.89126	2021.64721
93.94426	1969.95731	93.94426	1657.47438	93.94426	2034.95778
93.99726	1895.22702	93.99726	1736.36818	93.99726	1988.01424
94.05026	1935.67842	94.05026	1804.7059	94.05026	1986.94872
94.10326	1845.48638	94.10326	1715.59884	94.10326	1913.90031
94.15626	1947.4885	94.15626	1781.39609	94.15626	1951.76048
94.20926	1902.67893	94.20926	1762.30574	94.20926	1974.05572
94.26226	1918.62222	94.26226	1746.7224	94.26226	1979.78055
94.31526	1931.80876	94.31526	1758.99548	94.31526	2063.09153
94.36826	1960.7036	94.36826	1744.94326	94.36826	1972.91027
94.42126	1966.65663	94.42126	1766.95248	94.42126	2009.28158
94.47426	1921.08381	94.47426	1729.04099	94.47426	1980.15357
94.52726	1867.97207	94.52726	1823.2241	94.52726	1998.17949
94.58026	1943.62154	94.58026	1735.76847	94.58026	1877.69913
94.63326	1885.54147	94.63326	1844.14195	94.63326	2025.969
94.68626	1959.35337	94.68626	1762.36025	94.68626	1926.86719
94.73926	1901.43115	94.73926	1781.26839	94.73926	1955.67072
94.79226	1888.08195	94.79226	1782.54094	94.79226	2035.89242
94.84526	1944.03312	94.84526	1712.93602	94.84526	1929.48373
94.89826	1928.97854	94.89826	1759.20502	94.89826	2069.92969
94.95126	1985.50977	94.95126	1678.77316	94.95126	2005.48862
95.00426	1918.49358	95.00426	1811.81081	95.00426	2038.64151
95.05726	1877.32333	95.05726	1760.14259	95.05726	1964.64351
95.11026	1910.38959	95.11026	1715.73689	95.11026	1929.49023
95.16326	1910.0489	95.16326	1788.44579	95.16326	1996.9927
95.21626	1893.02816	95.21626	1809.62819	95.21626	1973.31758
95.26926	1911.43078	95.26926	1777.19394	95.26926	1978.96458
95.32226	1914.39546	95.32226	1787.80465	95.32226	1896.92438
95.37526	1936.19427	95.37526	1727.69964	95.37526	1885.4193
95.42826	1862.34825	95.42826	1747.70896	95.42826	1929.9459
95.48126	1908.93023	95.48126	1735.76347	95.48126	1912.88992
95.53426	1887.37928	95.53426	1769.60465	95.53426	1995.50054
95.58726	1864.52101	95.58726	1734.84799	95.58726	2051.57206
95.64026	1926.52969	95.64026	1785.6443	95.64026	2046.10025
95.69326	1955.12365	95.69326	1776.64421	95.69326	2017.25269
95.74626	1942.30707	95.74626	1741.30797	95.74626	1980.89599
95.79926	1916.75359	95.79926	1781.05331	95.79926	1997.57267
95.85226	1917.57949	95.85226	1808.22092	95.85226	2023.81873
95.90526	1933.67924	95.90526	1838.01376	95.90526	1940.34718
95.95826	1947.58986	95.95826	1833.09481	95.95826	1966.69477
96.01126	1937.85008	96.01126	1830.22477	96.01126	2009.33525
96.06426	1955.09616	96.06426	1825.19349	96.06426	1984.75183
96.11726	1982.33222	96.11726	1806.18568	96.11726	1971.51914
96.17026	1933.627	96.17026	1747.96959	96.17026	1967.44759
96.22326	1900.93838	96.22326	1775.36994	96.22326	1923.04459
96.27626	1938.4462	96.27626	1770.21164	96.27626	1945.09845
96.32926	1973.20157	96.32926	1760.10893	96.32926	2024.60926
96.38226	1963.29051	96.38226	1815.32115	96.38226	2007.70475
96.43526	1975.63702	96.43526	1806.21086	96.43526	1967.3538
96.48826	1983.42845	96.48826	1784.9513	96.48826	1981.31516
96.54126	1974.80993	96.54126	1841.83363	96.54126	1951.57647
96.59426	1979.35169	96.59426	1870.83185	96.59426	1926.0229
96.64726	1969.60465	96.64726	1816.87692	96.64726	1979.43566
96.70026	2008.23845	96.70026	1855.8425	96.70026	2050.22406
96.75326	2016.45023	96.75326	1851.73868	96.75326	2062.54691
96.80626	2011.01441	96.80626	1860.01761	96.80626	2009.7892
96.85926	1960.28074	96.85926	1893.29595	96.85926	1984.96716
96.91226	1976.38	96.91226	1834.96106	96.91226	1965.143
96.96526	2019.84217	96.96526	1803.68427	96.96526	2003.01562
97.01826	2041.52016	97.01826	1833.1129	97.01826	2061.34145
97.07126	2028.22774	97.07126	1889.42015	97.07126	2075.09917
97.12426	2010.16486	97.12426	1862.9758	97.12426	2081.32676
97.17726	2020.31539	97.17726	1856.9944	97.17726	2026.53099
97.23026	2025.1685	97.23026	1903.1991	97.23026	1971.17635
97.28326	1991.95396	97.28326	1866.69347	97.28326	1999.65233
97.33626	1992.20527	97.33626	1828.38769	97.33626	2007.25453
97.38926	1991.70304	97.38926	1873.62912	97.38926	2005.90747
97.44226	2003.90226	97.44226	1885.27628	97.44226	2052.28243
97.49526	2054.96575	97.49526	1855.19992	97.49526	2043.24296
97.54826	2095.34326	97.54826	1862.10958	97.54826	2001.68609
97.60126	2119.26757	97.60126	1899.64404	97.60126	2027.77274
97.65426	2127.28375	97.65426	1885.20341	97.65426	2029.44979
97.70726	2093.27237	97.70726	1899.53933	97.70726	2081.9965
97.76026	2122.30071	97.76026	1937.24159	97.76026	2103.65992
97.81326	2111.98284	97.81326	1972.20615	97.81326	2116.21677
97.86626	2155.04105	97.86626	1993.06161	97.86626	2122.99154
97.91926	2213.56477	97.91926	2062.94917	97.91926	2100.62297
97.97226	2263.52584	97.97226	2057.50512	97.97226	2082.74859
98.02526	2269.54648	98.02526	2145.71321	98.02526	2077.61891
98.07826	2296.83642	98.07826	2177.5805	98.07826	2176.01104
98.13126	2388.80298	98.13126	2162.70444	98.13126	2177.62267
98.18426	2490.37776	98.18426	2169.17058	98.18426	2169.9945
98.23726	2530.97334	98.23726	2259.68539	98.23726	2186.97088
98.29026	2718.20381	98.29026	2343.81307	98.29026	2264.88996
98.34326	2830.70075	98.34326	2443.31281	98.34326	2332.16983
98.39626	2928.53991	98.39626	2496.68296	98.39626	2403.15665
98.44926	2970.98293	98.44926	2670.00969	98.44926	2477.29957
98.50226	3201.47436	98.50226	2801.7116	98.50226	2608.69467
98.55526	3401.56177	98.55526	2956.03394	98.55526	2734.14914
98.60826	3588.11707	98.60826	3094.80875	98.60826	2957.01405
98.66126	3781.06385	98.66126	3266.37036	98.66126	3001.36912
98.71426	4045.86259	98.71426	3383.50164	98.71426	3159.26118
98.76726	4080.51458	98.76726	3669.56369	98.76726	3185.93976
98.82026	4378.41493	98.82026	3729.36615	98.82026	3435.31672
98.87326	4457.63935	98.87326	3796.14849	98.87326	3407.729
98.92626	4725.59906	98.92626	3918.20718	98.92626	3460.55581
98.97926	4771.03418	98.97926	3723.22919	98.97926	3444.4379
99.03226	4680.42754	99.03226	3682.9279	99.03226	3298.88738
99.08526	4759.4694	99.08526	3684.6674	99.08526	3298.27136
99.13826	4643.06141	99.13826	3529.3696	99.13826	3027.95716
99.19126	4492.24431	99.19126	3410.2814	99.19126	3032.66092
99.24426	4335.4282	99.24426	3180.26452	99.24426	2879.07898
99.29726	4142.24677	99.29726	3051.66895	99.29726	2711.74158
99.35026	3984.35663	99.35026	2867.94003	99.35026	2591.53314
99.40326	3731.7748	99.40326	2819.42205	99.40326	2506.34098
99.45626	3575.28256	99.45626	2654.61493	99.45626	2333.89158
99.50926	3394.47075	99.50926	2609.74532	99.50926	2371.68372
99.56226	3166.58194	99.56226	2395.31363	99.56226	2355.73015
99.61526	2980.22144	99.61526	2409.3637	99.61526	2245.22707
99.66826	2799.47315	99.66826	2344.30929	99.66826	2187.09596
99.72126	2760.38576	99.72126	2142.07909	99.72126	2112.76744
99.77426	2621.16353	99.77426	2180.97293	99.77426	2189.93446
99.82726	2461.20786	99.82726	2087.12022	99.82726	2022.46796
99.88026	2362.22359	99.88026	2098.29278	99.88026	2076.99875
99.93326	2369.03436	99.93326	2001.11252	99.93326	2018.03992
99.98626	2200.6191	99.98626	2047.60966	99.98626	1993.72082
100.03926	2294.21566	100.03926	1903.74758	100.03926	2011.90312
100.09226	2192.03366	100.09226	1978.81726	100.09226	1992.56827
100.14526	2207.57047	100.14526	1892.02965	100.14526	2067.99872
100.19826	2171.66199	100.19826	1962.77633	100.19826	1990.85948
100.25126	2178.31564	100.25126	1908.25652	100.25126	1965.84736
100.30426	2160.72692	100.30426	1910.65339	100.30426	1998.73492
100.35726	2167.40108	100.35726	1905.22804	100.35726	2007.70079
100.41026	2074.80625	100.41026	1888.14692	100.41026	2019.11476
100.46326	2105.54528	100.46326	1880.42622	100.46326	1997.11501
100.51626	2091.25612	100.51626	1873.73508	100.51626	2063.26852
100.56926	2025.56359	100.56926	1865.06974	100.56926	2001.98512
100.62226	2081.89763	100.62226	1905.81375	100.62226	2035.09055
100.67526	2078.54367	100.67526	1875.16336	100.67526	2014.32769
100.72826	2002.76505	100.72826	1828.98874	100.72826	2038.97806
100.78126	2011.51028	100.78126	1774.23259	100.78126	1932.56363
100.83426	1958.4755	100.83426	1849.94163	100.83426	1940.92052
100.88726	1948.3471	100.88726	1816.48943	100.88726	1957.96452
100.94026	1956.80804	100.94026	1798.43764	100.94026	2011.81697
100.99326	1967.10256	100.99326	1769.69371	100.99326	2015.89922
101.04626	1971.76213	101.04626	1821.0342	101.04626	2025.9816
101.09926	1989.43699	101.09926	1760.46622	101.09926	1950.07571
101.15226	1963.47516	101.15226	1762.48448	101.15226	1976.54479
101.20526	1954.95463	101.20526	1784.59714	101.20526	1922.94215
101.25826	1976.723	101.25826	1838.86281	101.25826	1964.13459
101.31126	2004.79881	101.31126	1796.47808	101.31126	1934.16802
101.36426	1975.47261	101.36426	1766.9064	101.36426	1931.90427
101.41726	1941.23741	101.41726	1815.5566	101.41726	1985.1792
101.47026	1916.38294	101.47026	1840.65305	101.47026	1999.61946
101.52326	2002.81913	101.52326	1820.71922	101.52326	1952.83472
101.57626	1952.65004	101.57626	1804.57359	101.57626	1896.69556
101.62926	1885.32866	101.62926	1794.43129	101.62926	1940.69296
101.68226	1901.3408	101.68226	1755.82783	101.68226	1941.59973
101.73526	1895.96018	101.73526	1773.65861	101.73526	1931.83773
101.78826	1914.41108	101.78826	1761.06785	101.78826	1942.14334
101.84126	1966.69585	101.84126	1763.38556	101.84126	1936.14161
101.89426	1922.82839	101.89426	1780.46578	101.89426	2000.46778
101.94726	1860.77654	101.94726	1773.27986	101.94726	1969.33894
102.00026	1915.83	102.00026	1803.24907	102.00026	1928.91763
102.05326	2010.72228	102.05326	1803.70568	102.05326	1901.64695
102.10626	1990.61282	102.10626	1793.81192	102.10626	1951.21702
102.15926	1946.92105	102.15926	1797.3346	102.15926	2003.33061
102.21226	1966.91392	102.21226	1804.24315	102.21226	1989.19703
102.26526	1982.12057	102.26526	1796.50365	102.26526	1955.69297
102.31826	1943.54627	102.31826	1870.49906	102.31826	1932.26118
102.37126	1950.31832	102.37126	1858.86114	102.37126	1929.01382
102.42426	1948.38338	102.42426	1807.20402	102.42426	1901.20724
102.47726	1923.04603	102.47726	1855.9196	102.47726	1998.13568
102.53026	1952.75218	102.53026	1831.19599	102.53026	2021.72432
102.58326	1991.17419	102.58326	1784.92378	102.58326	1962.38912
102.63626	1927.29297	102.63626	1764.67565	102.63626	1953.73209
102.68926	1950.54565	102.68926	1770.54837	102.68926	1954.02442
102.74226	1973.19979	102.74226	1826.22265	102.74226	1963.95691
102.79526	1896.85013	102.79526	1790.85293	102.79526	1958.42078
102.84826	1899.06889	102.84826	1813.45713	102.84826	1923.29171
102.90126	1941.34971	102.90126	1830.1349	102.90126	1905.82546
102.95426	1929.73767	102.95426	1815.30798	102.95426	1911.6455
103.00726	1937.00657	103.00726	1776.38745	103.00726	1892.46937
103.06026	1920.18568	103.06026	1738.34802	103.06026	1915.56302
103.11326	1925.38757	103.11326	1806.81755	103.11326	1955.34335
103.16626	1922.46575	103.16626	1791.6983	103.16626	1927.74156
103.21926	1934.22302	103.21926	1755.88513	103.21926	1937.0956
103.27226	1921.78109	103.27226	1759.00946	103.27226	1901.95078
103.32526	1892.47701	103.32526	1738.71986	103.32526	1877.86704
103.37826	1897.53452	103.37826	1741.86555	103.37826	1899.77229
103.43126	1941.06607	103.43126	1745.36048	103.43126	1964.16233
103.48426	1966.19972	103.48426	1783.42607	103.48426	1962.33491
103.53726	1924.71488	103.53726	1768.88378	103.53726	1878.03446
103.59026	1971.13948	103.59026	1793.88926	103.59026	1868.5731
103.64326	2014.65945	103.64326	1800.07134	103.64326	1933.84501
103.69626	1968.16572	103.69626	1807.85362	103.69626	1907.47077
103.74926	1924.21399	103.74926	1735.44774	103.74926	1886.79278
103.80226	1919.16501	103.80226	1780.34605	103.80226	1899.39175
103.85526	1932.93087	103.85526	1774.95264	103.85526	1955.8881
103.90826	1898.24654	103.90826	1779.02665	103.90826	1916.9429
103.96126	1912.22223	103.96126	1773.62769	103.96126	1842.38489
104.01426	1891.23665	104.01426	1744.70448	104.01426	1887.83895
104.06726	1919.57627	104.06726	1739.69996	104.06726	1948.88898
104.12026	1963.87908	104.12026	1700.69442	104.12026	2000.09221
104.17326	2024.64975	104.17326	1705.90597	104.17326	1948.77521
104.22626	1984.12775	104.22626	1698.76308	104.22626	1938.44003
104.27926	1944.57216	104.27926	1760.01637	104.27926	1936.59689
104.33226	1933.31598	104.33226	1789.19155	104.33226	1883.33687
104.38526	1966.07455	104.38526	1777.75487	104.38526	1889.60824
104.43826	1901.30058	104.43826	1763.59666	104.43826	1918.24937
104.49126	1976.20481	104.49126	1726.97752	104.49126	1953.99708
104.54426	1940.65042	104.54426	1753.43065	104.54426	1906.92809
104.59726	1928.84242	104.59726	1759.3554	104.59726	1880.09861
104.65026	1931.52702	104.65026	1784.98235	104.65026	1851.0437
104.70326	1835.47194	104.70326	1794.24712	104.70326	1830.76977
104.75626	1916.45114	104.75626	1723.11024	104.75626	1945.28285
104.80926	1912.25124	104.80926	1788.00691	104.80926	1975.39538
104.86226	1888.03208	104.86226	1741.43926	104.86226	1873.85463
104.91526	1912.39761	104.91526	1732.12906	104.91526	1877.56384
104.96826	1872.28206	104.96826	1814.12085	104.96826	1921.96017
105.02126	1896.76644	105.02126	1695.98474	105.02126	1873.81894
105.07426	1931.88926	105.07426	1743.94188	105.07426	1827.03041
105.12726	1940.53301	105.12726	1710.45866	105.12726	1820.25349
105.18026	1912.21545	105.18026	1722.80493	105.18026	1907.33739
105.23326	1919.39476	105.23326	1766.22718	105.23326	1891.49913
105.28626	1903.63437	105.28626	1706.24796	105.28626	1971.18847
105.33926	1890.58288	105.33926	1818.71383	105.33926	1935.85326
105.39226	1848.50406	105.39226	1730.37541	105.39226	1949.45924
105.44526	1943.48493	105.44526	1792.3013	105.44526	1913.95889
105.49826	1983.39022	105.49826	1800.89796	105.49826	1927.7675
105.55126	1907.57544	105.55126	1848.66304	105.55126	1959.78057
105.60426	1933.85902	105.60426	1774.01271	105.60426	1925.0654
105.65726	1850.55069	105.65726	1774.90113	105.65726	1952.49849
105.71026	1898.71221	105.71026	1852.32082	105.71026	1906.63654
105.76326	1884.07193	105.76326	1722.99915	105.76326	1934.23818
105.81626	1886.627	105.81626	1786.75059	105.81626	1844.54382
105.86926	1904.33954	105.86926	1730.67694	105.86926	1906.77951
105.92226	1945.35473	105.92226	1744.57842	105.92226	1883.76785
105.97526	1855.54776	105.97526	1757.36415	105.97526	1908.67636
106.02826	1917.09491	106.02826	1799.1004	106.02826	1855.62009
106.08126	1888.40258	106.08126	1732.64576	106.08126	1958.73934
106.13426	1964.35951	106.13426	1801.84781	106.13426	1918.73155
106.18726	1914.51621	106.18726	1781.74545	106.18726	1886.41739
106.24026	1879.91247	106.24026	1860.31427	106.24026	1969.45947
106.29326	1927.15747	106.29326	1738.37003	106.29326	1974.89331
106.34626	1982.4125	106.34626	1769.15492	106.34626	1992.82651
106.39926	1931.36248	106.39926	1787.59005	106.39926	1996.97725
106.45226	1896.21676	106.45226	1738.76031	106.45226	1947.90012
106.50526	1932.64112	106.50526	1803.95164	106.50526	1950.66168
106.55826	1926.88686	106.55826	1845.87328	106.55826	1947.63873
106.61126	1890.99249	106.61126	1822.7161	106.61126	2004.06754
106.66426	1938.38227	106.66426	1859.01332	106.66426	2022.12154
106.71726	1927.44809	106.71726	1829.82198	106.71726	1948.89951
106.77026	1883.51612	106.77026	1730.07874	106.77026	1989.15035
106.82326	1917.64844	106.82326	1811.72377	106.82326	1917.82352
106.87626	1924.86904	106.87626	1790.46797	106.87626	1988.02138
106.92926	1949.13832	106.92926	1789.839	106.92926	2037.79715
106.98226	1942.66819	106.98226	1807.4466	106.98226	1974.92463
107.03526	1841.54798	107.03526	1818.46278	107.03526	1853.91351
107.08826	1860.67676	107.08826	1818.7236	107.08826	1969.95311
107.14126	1961.9383	107.14126	1765.94214	107.14126	1920.00327
107.19426	1962.28401	107.19426	1761.89318	107.19426	1920.80473
107.24726	1913.29827	107.24726	1780.66563	107.24726	1871.27387
107.30026	1922.53083	107.30026	1906.25151	107.30026	1903.16667
107.35326	1926.66172	107.35326	1877.18251	107.35326	1950.19001
107.40626	1884.99755	107.40626	1815.38349	107.40626	1964.67471
107.45926	1869.3113	107.45926	1809.54309	107.45926	1965.32078
107.51226	1897.56973	107.51226	1795.22986	107.51226	1975.44283
107.56526	1959.18456	107.56526	1753.04758	107.56526	1960.76243
107.61826	1927.74276	107.61826	1777.56214	107.61826	1986.73239
107.67126	1941.13128	107.67126	1789.56375	107.67126	1970.11985
107.72426	1874.68254	107.72426	1781.96613	107.72426	1924.3337
107.77726	1878.54291	107.77726	1852.89162	107.77726	1981.24143
107.83026	1884.08023	107.83026	1856.39809	107.83026	1965.4012
107.88326	1854.13423	107.88326	1833.37799	107.88326	2003.55828
107.93626	1902.31801	107.93626	1828.04747	107.93626	2024.02578
107.98926	1958.30451	107.98926	1836.50581	107.98926	1980.41949
108.04226	1985.03252	108.04226	1823.03593	108.04226	1981.54653
108.09526	1977.7944	108.09526	1858.21407	108.09526	1986.97545
108.14826	1944.73783	108.14826	1829.81539	108.14826	1955.23457
108.20126	1936.51974	108.20126	1836.88385	108.20126	1978.02163
108.25426	1915.50402	108.25426	1838.02614	108.25426	2011.83582
108.30726	1937.13116	108.30726	1836.68609	108.30726	2015.16557
108.36026	1880.63949	108.36026	1849.06116	108.36026	2012.07479
108.41326	1855.04296	108.41326	1836.36915	108.41326	2006.79807
108.46626	1895.74672	108.46626	1814.85341	108.46626	2000.29033
108.51926	1922.40582	108.51926	1818.59481	108.51926	2002.34802
108.57226	1920.87325	108.57226	1860.21991	108.57226	2077.0975
108.62526	1940.75063	108.62526	1865.06644	108.62526	2054.12087
108.67826	1927.44121	108.67826	1879.56673	108.67826	2014.13701
108.73126	1906.6955	108.73126	1837.0646	108.73126	2054.8782
108.78426	1925.5185	108.78426	1806.94666	108.78426	2087.46606
108.83726	1932.29542	108.83726	1817.83044	108.83726	2093.71124
108.89026	1913.93939	108.89026	1841.87761	108.89026	2085.97061
108.94326	1928.33579	108.94326	1861.36929	108.94326	2133.06598
108.99626	1962.74668	108.99626	1827.49955	108.99626	2101.25535
109.04926	1970.66344	109.04926	1853.79127	109.04926	2070.41753
109.10226	1922.34411	109.10226	1861.47122	109.10226	2149.00167
109.15526	1943.26097	109.15526	1799.44246	109.15526	2149.34711
109.20826	1932.72508	109.20826	1839.66527	109.20826	2147.26924
109.26126	1973.9021	109.26126	1839.73494	109.26126	2225.11779
109.31426	1992.52969	109.31426	1815.013	109.31426	2238.33073
109.36726	1970.62583	109.36726	1768.91464	109.36726	2249.6883
109.42026	1961.72209	109.42026	1832.89617	109.42026	2273.55057
109.47326	1971.36192	109.47326	1861.65788	109.47326	2350.44123
109.52626	1966.57945	109.52626	1888.59871	109.52626	2399.87704
109.57926	1984.63974	109.57926	1858.01977	109.57926	2450.21174
109.63226	1973.47699	109.63226	1823.50762	109.63226	2481.13372
109.68526	1997.09627	109.68526	1847.57584	109.68526	2500.79922
109.73826	1917.61121	109.73826	1854.30931	109.73826	2589.01313
109.79126	1909.62065	109.79126	1837.57074	109.79126	2661.73573
109.84426	1996.33264	109.84426	1875.8882	109.84426	2734.78802
109.89726	1982.55344	109.89726	1865.36002	109.89726	2737.51034
109.95026	1989.00012	109.95026	1879.24783	109.95026	2812.71517
110.00326	1937.60011	110.00326	1865.772	110.00326	2879.46889
110.05626	1955.86578	110.05626	1798.36102	110.05626	2884.34321
110.10926	2059.46228	110.10926	1846.04717	110.10926	2979.90696
110.16226	1953.96688	110.16226	1830.42934	110.16226	2935.70951
110.21526	1903.70149	110.21526	1827.37405	110.21526	2881.8305
110.26826	1946.66012	110.26826	1829.0131	110.26826	2840.85058
110.32126	2010.8834	110.32126	1821.69273	110.32126	2829.7668
110.37426	1916.91201	110.37426	1783.00055	110.37426	2790.36277
110.42726	1908.98281	110.42726	1780.83409	110.42726	2768.71393
110.48026	1966.66242	110.48026	1873.65447	110.48026	2652.51862
110.53326	1965.9658	110.53326	1858.71832	110.53326	2603.82287
110.58626	1940.82109	110.58626	1773.12634	110.58626	2561.22265
110.63926	1995.75507	110.63926	1838.74302	110.63926	2488.68076
110.69226	1922.56661	110.69226	1889.60583	110.69226	2458.84437
110.74526	2024.45095	110.74526	1788.66614	110.74526	2451.58645
110.79826	1958.43279	110.79826	1883.35049	110.79826	2350.73797
110.85126	1909.21692	110.85126	1816.41949	110.85126	2346.25258
110.90426	1890.396	110.90426	1844.55708	110.90426	2255.65649
110.95726	1888.0908	110.95726	1803.72229	110.95726	2187.9615
111.01026	1908.51429	111.01026	1801.8766	111.01026	2292.04243
111.06326	1964.59039	111.06326	1803.89486	111.06326	2226.62021
111.11626	1923.35927	111.11626	1824.91518	111.11626	2252.4192
111.16926	1945.95368	111.16926	1858.62682	111.16926	2108.21357
111.22226	1966.381	111.22226	1768.01985	111.22226	2154.30609
111.27526	1924.00509	111.27526	1723.9586	111.27526	2226.39381
111.32826	1946.69223	111.32826	1808.84673	111.32826	2090.87827
111.38126	1946.01822	111.38126	1837.89332	111.38126	2124.86114
111.43426	1889.2419	111.43426	1775.12447	111.43426	2083.38906
111.48726	1935.28671	111.48726	1797.55141	111.48726	2159.60994
111.54026	1885.76976	111.54026	1765.89077	111.54026	2129.95227
111.59326	1959.595	111.59326	1803.30302	111.59326	2084.24133
111.64626	1943.92863	111.64626	1808.24665	111.64626	2062.81725
111.69926	1880.17124	111.69926	1730.93874	111.69926	2104.91747
111.75226	1902.48933	111.75226	1807.15359	111.75226	1974.76028
111.80526	1909.05345	111.80526	1840.12155	111.80526	2041.1477
111.85826	1897.49012	111.85826	1822.80635	111.85826	2133.5857
111.91126	1910.93236	111.91126	1767.0044	111.91126	2078.93081
111.96426	1868.58916	111.96426	1833.65968	111.96426	2061.52497
112.01726	1875.58973	112.01726	1859.18606	112.01726	2104.75068
112.07026	1893.4678	112.07026	1777.38848	112.07026	2103.2487
112.12326	1922.34031	112.12326	1728.97245	112.12326	2047.70144
112.17626	1884.66272	112.17626	1745.6413	112.17626	2080.88245
112.22926	1902.72156	112.22926	1724.79957	112.22926	2068.97114
112.28226	1894.50461	112.28226	1766.73779	112.28226	2016.48265
112.33526	1837.59916	112.33526	1737.97146	112.33526	2095.13798
112.38826	1910.02744	112.38826	1754.83977	112.38826	2076.46672
112.44126	1911.27391	112.44126	1804.99911	112.44126	2052.06939
112.49426	1900.19153	112.49426	1776.62437	112.49426	2029.37502
112.54726	1908.3619	112.54726	1804.58888	112.54726	2063.33941
112.60026	1841.87524	112.60026	1766.42357	112.60026	2039.91834
112.65326	1882.80308	112.65326	1757.49797	112.65326	2042.35417
112.70626	1894.30353	112.70626	1725.69313	112.70626	2008.02044
112.75926	1895.82519	112.75926	1754.89903	112.75926	2054.97042
112.81226	1899.66597	112.81226	1775.60717	112.81226	2037.78796
112.86526	1946.73299	112.86526	1774.20362	112.86526	1960.83064
112.91826	1915.25209	112.91826	1752.75877	112.91826	2006.73262
112.97126	1886.05357	112.97126	1818.20659	112.97126	1997.58937
113.02426	1859.84826	113.02426	1789.49839	113.02426	2012.59399
113.07726	1865.17517	113.07726	1784.67208	113.07726	1981.51168
113.13026	1867.97183	113.13026	1808.85392	113.13026	2002.89686
113.18326	1855.09623	113.18326	1785.20946	113.18326	1997.93609
113.23626	1847.97625	113.23626	1763.95743	113.23626	2034.14411
113.28926	1851.91434	113.28926	1728.61719	113.28926	2054.01471
113.34226	1882.68043	113.34226	1791.69039	113.34226	2050.68408
113.39526	1889.54163	113.39526	1768.43453	113.39526	2047.77871
113.44826	1894.52818	113.44826	1769.74302	113.44826	2038.15169
113.50126	1870.16512	113.50126	1766.86093	113.50126	1994.75948
113.55426	1846.92642	113.55426	1798.23002	113.55426	1987.05753
113.60726	1844.67536	113.60726	1800.33941	113.60726	2018.58816
113.66026	1863.48153	113.66026	1764.3616	113.66026	2022.09486
113.71326	1855.57038	113.71326	1795.34849	113.71326	2004.04501
113.76626	1872.54066	113.76626	1814.91601	113.76626	1987.05063
113.81926	1885.98481	113.81926	1792.78974	113.81926	1968.23755
113.87226	1912.6152	113.87226	1737.40835	113.87226	1965.86241
113.92526	1912.21719	113.92526	1782.37331	113.92526	2008.61009
113.97826	1850.31672	113.97826	1854.26191	113.97826	2031.6032
114.03126	1879.94036	114.03126	1820.82383	114.03126	1978.46803
114.08426	1919.98061	114.08426	1814.34946	114.08426	1987.81137
114.13726	1888.78544	114.13726	1832.73822	114.13726	2013.78634
114.19026	1919.9322	114.19026	1841.08534	114.19026	2009.01439
114.24326	1916.06644	114.24326	1831.31461	114.24326	2001.69378
114.29626	1900.34618	114.29626	1788.06389	114.29626	1974.62482
114.34926	1892.54832	114.34926	1755.21709	114.34926	1950.45739
114.40226	1867.86785	114.40226	1771.18398	114.40226	1977.45428
114.45526	1875.34168	114.45526	1811.68473	114.45526	1969.77202
114.50826	1867.21042	114.50826	1840.09527	114.50826	1957.89414
114.56126	1845.64406	114.56126	1815.87619	114.56126	1951.50303
114.61426	1861.92035	114.61426	1789.15486	114.61426	1968.64787
114.66726	1846.61865	114.66726	1829.87008	114.66726	2013.47928
114.72026	1848.65272	114.72026	1867.12707	114.72026	1995.50627
114.77326	1875.172	114.77326	1871.79984	114.77326	1999.50288
114.82626	1881.89758	114.82626	1823.29389	114.82626	1993.30105
114.87926	1869.60991	114.87926	1860.45283	114.87926	1927.33821
114.93226	1831.71997	114.93226	1855.45956	114.93226	1978.71317
114.98526	1892.81539	114.98526	1869.41762	114.98526	2025.0112
115.03826	1977.00095	115.03826	1854.65504	115.03826	2023.76308
115.09126	1937.16055	115.09126	1845.12822	115.09126	1973.40136
115.14426	1913.58795	115.14426	1885.87817	115.14426	1995.0984
115.19726	1921.31804	115.19726	1874.31934	115.19726	2016.18878
115.25026	1888.2891	115.25026	1875.54502	115.25026	2045.07781
115.30326	1883.75087	115.30326	1833.73403	115.30326	2020.45042
115.35626	1944.37496	115.35626	1843.66836	115.35626	2048.26009
115.40926	1875.67008	115.40926	1899.26595	115.40926	2029.69628
115.46226	1876.27471	115.46226	1914.22266	115.46226	1983.80148
115.51526	1902.78939	115.51526	1908.06546	115.51526	2000.99671
115.56826	1897.42145	115.56826	1826.53575	115.56826	1959.31313
115.62126	1953.47521	115.62126	1836.34595	115.62126	2042.43433
115.67426	1911.39867	115.67426	1840.99926	115.67426	2051.90997
115.72726	1960.12252	115.72726	1869.7224	115.72726	1977.82632
115.78026	1896.21726	115.78026	1883.27103	115.78026	2007.93766
115.83326	1920.32828	115.83326	1852.7862	115.83326	1958.7517
115.88626	1923.91085	115.88626	1873.07309	115.88626	2025.88125
115.93926	1865.15263	115.93926	1831.83636	115.93926	1982.31923
115.99226	1906.81195	115.99226	1844.04576	115.99226	2004.82421
116.04526	1963.50954	116.04526	1814.30546	116.04526	2055.11623
116.09826	1873.9312	116.09826	1905.09587	116.09826	2026.27301
116.15126	1934.08653	116.15126	1864.53043	116.15126	2038.23683
116.20426	1963.7438	116.20426	1870.64751	116.20426	2062.82352
116.25726	1961.00711	116.25726	1858.32353	116.25726	2061.17334
116.31026	1910.24046	116.31026	1914.91031	116.31026	1995.05602
116.36326	1908.68832	116.36326	1945.62693	116.36326	1977.04499
116.41626	1930.69856	116.41626	1949.87583	116.41626	2004.45586
116.46926	1951.43375	116.46926	1916.04518	116.46926	2035.14423
116.52226	1882.72433	116.52226	1901.33238	116.52226	2030.21341
116.57526	1913.91865	116.57526	1817.31389	116.57526	2070.80902
116.62826	1862.41649	116.62826	1796.23252	116.62826	1975.39753
116.68126	1834.23344	116.68126	1827.68264	116.68126	2012.11125
116.73426	1860.42831	116.73426	1903.42601	116.73426	1999.59869
116.78726	1952.81049	116.78726	1923.89984	116.78726	2083.18274
116.84026	1866.52718	116.84026	1886.68418	116.84026	2023.6393
116.89326	1941.19676	116.89326	1842.47779	116.89326	1979.36674
116.94626	1924.09222	116.94626	1818.09146	116.94626	2059.93546
116.99926	1914.35359	116.99926	1844.91807	116.99926	2010.12917
117.05226	1928.30402	117.05226	1872.93931	117.05226	2069.88095
117.10526	1930.97451	117.10526	1877.93482	117.10526	2107.30736
117.15826	1911.22438	117.15826	1868.11873	117.15826	2095.15196
117.21126	1934.98003	117.21126	1903.96289	117.21126	2106.99818
117.26426	1970.77451	117.26426	1872.4569	117.26426	2114.92721
117.31726	1939.08691	117.31726	1801.99045	117.31726	2230.92046
117.37026	1886.62421	117.37026	1857.40261	117.37026	2168.05469
117.42326	1948.90956	117.42326	1801.19025	117.42326	2209.01674
117.47626	1995.52996	117.47626	1913.93497	117.47626	2260.25677
117.52926	1881.4418	117.52926	1867.62619	117.52926	2183.44397
117.58226	1957.20251	117.58226	1845.69978	117.58226	2265.39005
117.63526	1919.30992	117.63526	1889.09246	117.63526	2317.66347
117.68826	1980.42294	117.68826	1921.90973	117.68826	2344.99065
117.74126	2029.52504	117.74126	1843.34937	117.74126	2413.3767
117.79426	1908.35844	117.79426	1865.33075	117.79426	2424.34169
117.84726	1955.71679	117.84726	1850.22946	117.84726	2492.20698
117.90026	1939.62146	117.90026	1850.13762	117.90026	2499.67337
117.95326	1904.57312	117.95326	1835.76045	117.95326	2471.90957
118.00626	1944.50417	118.00626	1836.31626	118.00626	2413.66827
118.05926	1942.4625	118.05926	1847.85524	118.05926	2477.54442
118.11226	1874.01687	118.11226	1841.91743	118.11226	2438.75088
118.16526	1869.84703	118.16526	1886.39378	118.16526	2514.7822
118.21826	1906.56013	118.21826	1823.88343	118.21826	2327.98284
118.27126	1905.87067	118.27126	1896.80386	118.27126	2370.58833
118.32426	1895.24462	118.32426	1844.8065	118.32426	2332.33095
118.37726	1987.69137	118.37726	1877.41584	118.37726	2282.58216
118.43026	1896.0555	118.43026	1880.22171	118.43026	2319.93323
118.48326	1833.6626	118.48326	1895.44704	118.48326	2292.527
118.53626	1827.20259	118.53626	1861.11358	118.53626	2151.74962
118.58926	1916.00676	118.58926	1820.28358	118.58926	2158.39341
118.64226	1940.96236	118.64226	1875.97546	118.64226	2188.36732
118.69526	2034.9048	118.69526	1855.9333	118.69526	2125.07941
118.74826	1970.17105	118.74826	1898.27366	118.74826	2083.70105
118.80126	1966.22054	118.80126	1913.67575	118.80126	2077.99183
118.85426	1939.32842	118.85426	1874.63749	118.85426	2094.8233
118.90726	1951.62402	118.90726	1867.17519	118.90726	2070.53747
118.96026	1944.4021	118.96026	1858.62937	118.96026	2095.82938
119.01326	1978.83189	119.01326	1864.73581	119.01326	2076.95412
119.06626	1975.1462	119.06626	1920.85109	119.06626	2076.89093
119.11926	1906.19605	119.11926	1886.02748	119.11926	2043.89264
119.17226	1924.99041	119.17226	1883.28707	119.17226	2039.11594
119.22526	1913.14775	119.22526	1858.35174	119.22526	2059.49385
119.27826	1913.3475	119.27826	1855.95144	119.27826	2041.93101
119.33126	1918.39159	119.33126	1874.47756	119.33126	2021.74837
119.38426	1920.80821	119.38426	1852.28896	119.38426	2052.96153
119.43726	1950.40998	119.43726	1842.5792	119.43726	2074.74176
119.49026	1916.23237	119.49026	1857.32868	119.49026	1974.77762
119.54326	1879.03101	119.54326	1911.80258	119.54326	1950.61417
119.59626	1874.90287	119.59626	1915.75292	119.59626	1931.20306
119.64926	1892.2484	119.64926	1882.88291	119.64926	1964.632
119.70226	1842.49832	119.70226	1866.40209	119.70226	2049.44186
119.75526	1889.79375	119.75526	1873.3158	119.75526	2022.52732
119.80826	1914.36772	119.80826	1944.58622	119.80826	1993.69572
119.86126	1958.74191	119.86126	1907.64917	119.86126	2005.6508
119.91426	1974.36653	119.91426	1831.14758	119.91426	2080.03037
119.96726	1947.48675	119.96726	1829.23487	119.96726	2097.65937
		
